"SamplMN1345BVslowResin - RawData"
"Wavelength nm.","T%"
200.00,0.22792
201.00,0.26368
202.00,0.24740
203.00,0.18477
204.00,0.23426
205.00,0.25149
206.00,0.20786
207.00,0.21385
208.00,0.31536
209.00,0.32249
210.00,0.32476
211.00,0.36370
212.00,0.36209
213.00,0.41073
214.00,0.43789
215.00,0.42857
216.00,0.45589
217.00,0.46401
218.00,0.46065
219.00,0.48525
220.00,0.51472
221.00,0.51638
222.00,0.61010
223.00,0.68694
224.00,0.77535
225.00,0.96394
226.00,1.31032
227.00,1.80191
228.00,2.50503
229.00,3.52965
230.00,4.87644
231.00,6.65553
232.00,8.98029
233.00,11.64283
234.00,14.76714
235.00,18.37277
236.00,22.11877
237.00,25.97664
238.00,29.76585
239.00,33.16239
240.00,35.94233
241.00,38.30033
242.00,40.29951
243.00,41.87629
244.00,42.99050
245.00,44.11312
246.00,44.97699
247.00,45.86104
248.00,46.87865
249.00,47.90907
250.00,48.98395
251.00,50.06232
252.00,51.15811
253.00,51.99493
254.00,52.83446
255.00,53.78326
256.00,54.41676
257.00,54.98351
258.00,55.35145
259.00,55.61690
260.00,55.72379
261.00,55.69603
262.00,55.43554
263.00,55.33819
264.00,54.87508
265.00,54.70525
266.00,54.19950
267.00,53.85662
268.00,53.50411
269.00,53.13749
270.00,52.99298
271.00,52.86529
272.00,52.74769
273.00,52.52692
274.00,52.57263
275.00,52.89487
276.00,52.75915
277.00,53.08791
278.00,53.20923
279.00,53.64667
280.00,54.04937
281.00,54.64584
282.00,55.07395
283.00,55.54245
284.00,55.94919
285.00,56.48000
286.00,57.00060
287.00,57.31425
288.00,57.96946
289.00,58.46763
290.00,58.84712
291.00,59.07302
292.00,59.56392
293.00,59.75652
294.00,59.86668
295.00,59.98009
296.00,60.24681
297.00,60.34665
298.00,60.27019
299.00,60.25915
300.00,60.20898
301.00,60.05222
302.00,59.87416
303.00,59.60624
304.00,59.62868
305.00,59.15765
306.00,58.91357
307.00,58.60937
308.00,58.26082
309.00,58.13945
310.00,57.78908
311.00,57.63236
312.00,57.48437
313.00,57.16798
314.00,57.08105
315.00,56.93682
316.00,56.55863
317.00,56.41310
318.00,56.51873
319.00,56.37630
320.00,56.27273
321.00,56.46082
322.00,56.17908
323.00,56.30089
324.00,55.99611
325.00,55.86997
326.00,55.97816
327.00,55.99713
328.00,56.24090
329.00,56.63015
330.00,56.66127
331.00,56.84307
332.00,57.00372
333.00,57.16558
334.00,57.37699
335.00,57.88734
336.00,58.04928
337.00,58.17489
338.00,58.50027
339.00,58.83276
340.00,58.93852
341.00,59.38497
342.00,59.67223
343.00,59.83865
344.00,60.07865
345.00,60.23976
346.00,60.42066
347.00,60.60909
348.00,60.97909
349.00,61.16822
350.00,61.37055
351.00,61.60687
352.00,61.74582
353.00,61.75363
354.00,61.83780
355.00,61.89891
356.00,62.05373
357.00,62.01729
358.00,62.02713
359.00,62.07995
360.00,62.07415
361.00,62.12799
362.00,61.91531
363.00,62.17189
364.00,62.02113
365.00,61.80820
366.00,61.76301
367.00,61.67648
368.00,61.64911
369.00,61.44472
370.00,61.37730
371.00,61.18491
372.00,61.07501
373.00,60.84443
374.00,60.65686
375.00,60.55958
376.00,60.43231
377.00,60.26223
378.00,60.22114
379.00,60.05163
380.00,59.87502
381.00,59.70235
382.00,59.55765
383.00,59.45728
384.00,59.25313
385.00,59.07806
386.00,59.03338
387.00,58.90952
388.00,58.90186
389.00,58.67212
390.00,58.63313
391.00,58.49666
392.00,58.44080
393.00,58.28363
394.00,58.23603
395.00,58.15156
396.00,58.08735
397.00,58.10036
398.00,58.05364
399.00,58.10308
400.00,58.05867
401.00,57.98939
402.00,57.97712
403.00,57.98697
404.00,58.10162
405.00,58.14040
406.00,58.11719
407.00,58.18702
408.00,58.17339
409.00,58.34972
410.00,58.31218
411.00,58.40623
412.00,58.53629
413.00,58.63641
414.00,58.69504
415.00,58.91393
416.00,58.94870
417.00,59.17401
418.00,59.28902
419.00,59.52385
420.00,59.62684
421.00,59.84694
422.00,59.98795
423.00,60.19844
424.00,60.44620
425.00,60.57199
426.00,60.75645
427.00,60.97907
428.00,61.13014
429.00,61.29948
430.00,61.40313
431.00,61.63851
432.00,61.74302
433.00,61.90917
434.00,62.10249
435.00,62.21060
436.00,62.40140
437.00,62.47175
438.00,62.61485
439.00,62.77211
440.00,62.91595
441.00,63.06964
442.00,63.21243
443.00,63.32177
444.00,63.40792
445.00,63.53462
446.00,63.68208
447.00,63.78211
448.00,63.83174
449.00,63.98990
450.00,64.05879
451.00,64.15057
452.00,64.27404
453.00,64.34015
454.00,64.32222
455.00,64.54124
456.00,64.57236
457.00,64.58268
458.00,64.69252
459.00,64.69911
460.00,64.72579
461.00,64.78237
462.00,64.82844
463.00,64.85341
464.00,64.88945
465.00,64.86495
466.00,64.85460
467.00,64.91171
468.00,64.89456
469.00,64.91618
470.00,64.86953
471.00,64.87647
472.00,64.82166
473.00,64.85915
474.00,64.80002
475.00,64.76095
476.00,64.71303
477.00,64.73792
478.00,64.67407
479.00,64.57642
480.00,64.60297
481.00,64.51461
482.00,64.45949
483.00,64.37121
484.00,64.32229
485.00,64.26750
486.00,64.16974
487.00,64.18337
488.00,63.99663
489.00,64.00691
490.00,63.87525
491.00,63.85716
492.00,63.78292
493.00,63.67771
494.00,63.56788
495.00,63.49330
496.00,63.40268
497.00,63.39052
498.00,63.26618
499.00,63.17254
500.00,63.10677
501.00,63.01532
502.00,62.90624
503.00,62.87217
504.00,62.78390
505.00,62.64758
506.00,62.52345
507.00,62.47857
508.00,62.40717
509.00,62.34878
510.00,62.19563
511.00,62.16158
512.00,62.08117
513.00,61.98036
514.00,61.91731
515.00,61.86185
516.00,61.74350
517.00,61.68562
518.00,61.67179
519.00,61.51493
520.00,61.47385
521.00,61.39686
522.00,61.36406
523.00,61.25268
524.00,61.18650
525.00,61.18188
526.00,61.08606
527.00,61.03339
528.00,60.95803
529.00,60.88853
530.00,60.84245
531.00,60.81338
532.00,60.78998
533.00,60.75972
534.00,60.70682
535.00,60.65174
536.00,60.61925
537.00,60.62112
538.00,60.59062
539.00,60.54772
540.00,60.54483
541.00,60.47699
542.00,60.41374
543.00,60.46255
544.00,60.39537
545.00,60.34951
546.00,60.37076
547.00,60.35282
548.00,60.35910
549.00,60.30611
550.00,60.31036
551.00,60.32699
552.00,60.28416
553.00,60.27113
554.00,60.34821
555.00,60.32473
556.00,60.27865
557.00,60.30952
558.00,60.33635
559.00,60.38081
560.00,60.34372
561.00,60.36807
562.00,60.35528
563.00,60.37432
564.00,60.40024
565.00,60.42246
566.00,60.40516
567.00,60.45097
568.00,60.45982
569.00,60.51296
570.00,60.54099
571.00,60.53438
572.00,60.60464
573.00,60.62368
574.00,60.67326
575.00,60.67178
576.00,60.76397
577.00,60.80247
578.00,60.86149
579.00,60.87030
580.00,60.91154
581.00,60.92421
582.00,61.01128
583.00,61.05150
584.00,61.11038
585.00,61.14802
586.00,61.17287
587.00,61.27704
588.00,61.30677
589.00,61.33469
590.00,61.39061
591.00,61.48685
592.00,61.57822
593.00,61.61528
594.00,61.66263
595.00,61.69843
596.00,61.77886
597.00,61.79857
598.00,61.91820
599.00,61.98292
600.00,62.04216
601.00,62.11129
602.00,62.16313
603.00,62.23850
604.00,62.27760
605.00,62.34502
606.00,62.37519
607.00,62.45443
608.00,62.49334
609.00,62.58566
610.00,62.65134
611.00,62.66882
612.00,62.79881
613.00,62.82378
614.00,62.90666
615.00,62.97389
616.00,62.99757
617.00,63.13190
618.00,63.16934
619.00,63.21727
620.00,63.30214
621.00,63.40245
622.00,63.46266
623.00,63.49961
624.00,63.58800
625.00,63.64047
626.00,63.70472
627.00,63.69781
628.00,63.82372
629.00,63.90302
630.00,63.96103
631.00,63.98322
632.00,64.10875
633.00,64.09404
634.00,64.13481
635.00,64.23314
636.00,64.32723
637.00,64.33891
638.00,64.45375
639.00,64.54757
640.00,64.52605
641.00,64.61598
642.00,64.68716
643.00,64.79107
644.00,64.86584
645.00,64.83859
646.00,64.90726
647.00,64.98560
648.00,65.00256
649.00,65.12701
650.00,65.22400
651.00,65.22508
652.00,65.32022
653.00,65.38281
654.00,65.45625
655.00,65.51200
656.00,65.50569
657.00,65.56707
658.00,65.65418
659.00,65.71273
660.00,65.73802
661.00,65.80437
662.00,65.84466
663.00,66.03717
664.00,66.01170
665.00,66.06959
666.00,66.12434
667.00,66.16367
668.00,66.31416
669.00,66.29653
670.00,66.43110
671.00,66.41725
672.00,66.47462
673.00,66.54508
674.00,66.66343
675.00,66.71958
676.00,66.81390
677.00,66.86472
678.00,66.92249
679.00,66.90266
680.00,66.96982
681.00,67.08122
682.00,67.09166
683.00,67.30335
684.00,67.35227
685.00,67.40610
686.00,67.53619
687.00,67.52264
688.00,67.65833
689.00,67.64762
690.00,67.71986
691.00,67.83846
692.00,67.94344
693.00,68.07635
694.00,68.13995
695.00,68.23788
696.00,68.26794
697.00,68.44287
698.00,68.47839
699.00,68.42951
700.00,68.64175
701.00,68.64541
702.00,68.84105
703.00,68.79203
704.00,68.95016
705.00,69.03327
706.00,69.11877
707.00,69.17500
708.00,69.29381
709.00,69.28166
710.00,69.44372
711.00,69.47643
712.00,69.43154
713.00,69.51760
714.00,69.58743
715.00,69.56559
716.00,69.63661
717.00,69.71180
718.00,69.68299
719.00,69.79886
720.00,70.00937
721.00,69.89201
722.00,69.93795
723.00,69.97738
724.00,70.04378
725.00,69.86032
726.00,70.08730
727.00,70.06992
728.00,70.19918
729.00,70.06317
730.00,70.14787
731.00,70.06282
732.00,70.11698
733.00,70.25450
734.00,70.01722
735.00,70.01404
736.00,70.32374
737.00,70.18265
738.00,69.98315
739.00,70.00300
740.00,70.06647
741.00,70.05816
742.00,70.04707
743.00,70.03838
744.00,70.08602
745.00,69.96889
746.00,69.94251
747.00,70.13997
748.00,69.99997
749.00,69.89125
750.00,69.97481
751.00,70.05489
752.00,69.96447
753.00,69.81117
754.00,70.00839
755.00,69.92505
756.00,69.92557
757.00,70.00068
758.00,69.79193
759.00,69.87221
760.00,69.79182
761.00,69.55262
762.00,69.84358
763.00,69.72535
764.00,69.53402
765.00,69.41197
766.00,69.62168
767.00,69.66694
768.00,69.39751
769.00,69.51438
770.00,69.51315
771.00,69.59924
772.00,69.53782
773.00,69.36743
774.00,69.47359
775.00,69.43992
776.00,69.43501
777.00,69.34307
778.00,69.27704
779.00,69.33299
780.00,69.41809
781.00,69.40544
782.00,69.21448
783.00,69.40081
784.00,69.23803
785.00,69.23474
786.00,69.35775
787.00,69.17471
788.00,69.14236
789.00,69.18355
790.00,69.08726
791.00,68.89896
792.00,69.19999
793.00,69.00060
794.00,69.12100
795.00,69.17524
796.00,68.92239
797.00,69.05318
798.00,68.95849
799.00,69.01228
800.00,69.04519
