"SapphireDoubleResin - RawData"
"Wavelength nm.","T%"
200.00,81.11885
201.00,79.60658
202.00,81.38962
203.00,80.38175
204.00,82.80523
205.00,83.34767
206.00,81.76665
207.00,81.10983
208.00,82.48160
209.00,81.95423
210.00,82.99243
211.00,83.08456
212.00,82.55827
213.00,83.48044
214.00,82.99063
215.00,81.37749
216.00,83.12967
217.00,82.75864
218.00,82.67040
219.00,83.55359
220.00,83.29933
221.00,82.73144
222.00,82.90877
223.00,82.97386
224.00,82.89571
225.00,83.17391
226.00,83.01086
227.00,82.96554
228.00,83.01343
229.00,83.48498
230.00,83.46317
231.00,83.28887
232.00,84.22180
233.00,83.72453
234.00,83.11410
235.00,83.08585
236.00,84.12371
237.00,84.23138
238.00,84.29009
239.00,84.13851
240.00,84.21952
241.00,84.53709
242.00,84.23726
243.00,84.86642
244.00,84.15352
245.00,84.39353
246.00,84.73244
247.00,84.75592
248.00,84.35485
249.00,84.38011
250.00,84.55187
251.00,84.36517
252.00,84.50171
253.00,84.67413
254.00,84.83688
255.00,84.74709
256.00,84.65502
257.00,84.46304
258.00,85.01933
259.00,84.34674
260.00,84.86053
261.00,85.22379
262.00,84.64200
263.00,84.77398
264.00,85.08088
265.00,85.22114
266.00,85.13930
267.00,85.21398
268.00,85.22890
269.00,84.89509
270.00,85.18625
271.00,85.11417
272.00,85.00710
273.00,85.01958
274.00,85.18561
275.00,85.03811
276.00,85.14445
277.00,85.23071
278.00,85.40198
279.00,85.20628
280.00,84.94857
281.00,84.95619
282.00,84.87012
283.00,85.37769
284.00,85.35542
285.00,85.45818
286.00,84.45529
287.00,85.78903
288.00,85.23266
289.00,85.56755
290.00,85.45028
291.00,85.39478
292.00,85.52153
293.00,85.16651
294.00,85.77017
295.00,85.45133
296.00,85.33766
297.00,85.31773
298.00,85.37296
299.00,85.53520
300.00,85.56074
301.00,85.69238
302.00,85.68422
303.00,85.13482
304.00,85.24172
305.00,85.39217
306.00,86.19190
307.00,85.94598
308.00,86.06177
309.00,85.36088
310.00,86.08444
311.00,85.85660
312.00,86.20560
313.00,86.27523
314.00,85.67040
315.00,86.29438
316.00,85.95674
317.00,85.95026
318.00,85.64153
319.00,85.57642
320.00,86.15587
321.00,85.70589
322.00,86.15546
323.00,86.26962
324.00,86.00534
325.00,86.18469
326.00,85.68056
327.00,85.96646
328.00,85.62319
329.00,86.32025
330.00,85.86348
331.00,85.55027
332.00,86.20481
333.00,86.19409
334.00,85.94205
335.00,85.76750
336.00,86.02314
337.00,85.60410
338.00,85.46597
339.00,85.81527
340.00,86.07318
341.00,86.16176
342.00,85.70068
343.00,86.11987
344.00,86.00944
345.00,85.97186
346.00,86.15858
347.00,86.08959
348.00,85.95421
349.00,85.96076
350.00,85.86859
351.00,85.54409
352.00,86.05987
353.00,85.75916
354.00,86.12247
355.00,86.20250
356.00,86.26670
357.00,85.92516
358.00,86.12337
359.00,85.93215
360.00,85.74700
361.00,85.98614
362.00,86.07140
363.00,86.15905
364.00,86.18768
365.00,85.99226
366.00,86.17017
367.00,86.34046
368.00,86.17268
369.00,86.07243
370.00,86.05184
371.00,86.35025
372.00,85.88588
373.00,85.90820
374.00,85.98801
375.00,85.98106
376.00,85.88198
377.00,85.89543
378.00,85.98210
379.00,85.77206
380.00,86.14348
381.00,86.41415
382.00,86.05099
383.00,86.17151
384.00,86.43237
385.00,86.02335
386.00,86.04742
387.00,86.02403
388.00,86.17097
389.00,86.25352
390.00,86.05438
391.00,86.16328
392.00,86.27766
393.00,86.35083
394.00,86.27222
395.00,86.01817
396.00,86.34746
397.00,86.10401
398.00,86.16061
399.00,86.28679
400.00,86.13651
401.00,86.18242
402.00,86.13751
403.00,86.33742
404.00,86.10981
405.00,86.04897
406.00,86.32129
407.00,86.21565
408.00,86.12149
409.00,86.08059
410.00,86.13006
411.00,86.26885
412.00,86.03508
413.00,86.23723
414.00,86.23357
415.00,86.33095
416.00,86.25320
417.00,86.20023
418.00,86.18298
419.00,86.24687
420.00,86.28814
421.00,86.39055
422.00,86.31024
423.00,86.32954
424.00,86.25903
425.00,86.24502
426.00,86.42006
427.00,86.29327
428.00,86.16118
429.00,86.35835
430.00,86.30306
431.00,86.30304
432.00,86.40152
433.00,86.34552
434.00,86.35089
435.00,86.40162
436.00,86.36854
437.00,86.35585
438.00,86.53263
439.00,86.21117
440.00,86.32783
441.00,86.41491
442.00,86.28677
443.00,86.45422
444.00,86.30967
445.00,86.41807
446.00,86.37935
447.00,86.24584
448.00,86.43915
449.00,86.27865
450.00,86.33301
451.00,86.36984
452.00,86.28913
453.00,86.34275
454.00,86.37926
455.00,86.15246
456.00,86.36062
457.00,86.39606
458.00,86.40792
459.00,86.51707
460.00,86.36505
461.00,86.44130
462.00,86.48841
463.00,86.54681
464.00,86.44707
465.00,86.38783
466.00,86.31960
467.00,86.32795
468.00,86.43778
469.00,86.41035
470.00,86.50637
471.00,86.33669
472.00,86.39158
473.00,86.39784
474.00,86.44149
475.00,86.38943
476.00,86.42014
477.00,86.45786
478.00,86.41323
479.00,86.36802
480.00,86.44808
481.00,86.27875
482.00,86.48510
483.00,86.43063
484.00,86.44418
485.00,86.46866
486.00,86.43453
487.00,86.38036
488.00,86.39290
489.00,86.44336
490.00,86.45790
491.00,86.37804
492.00,86.50621
493.00,86.41531
494.00,86.52453
495.00,86.38144
496.00,86.40267
497.00,86.30047
498.00,86.32057
499.00,86.48276
500.00,86.47858
501.00,86.41742
502.00,86.33908
503.00,86.47046
504.00,86.41321
505.00,86.43256
506.00,86.42070
507.00,86.32202
508.00,86.51685
509.00,86.45651
510.00,86.42251
511.00,86.41241
512.00,86.44868
513.00,86.44584
514.00,86.49271
515.00,86.24364
516.00,86.41722
517.00,86.55879
518.00,86.47162
519.00,86.40497
520.00,86.37726
521.00,86.46615
522.00,86.52056
523.00,86.62113
524.00,86.60415
525.00,86.36783
526.00,86.49608
527.00,86.37963
528.00,86.42328
529.00,86.36625
530.00,86.47699
531.00,86.43802
532.00,86.46210
533.00,86.42067
534.00,86.46795
535.00,86.35907
536.00,86.27933
537.00,86.36123
538.00,86.41859
539.00,86.37182
540.00,86.30522
541.00,86.44855
542.00,86.46166
543.00,86.48752
544.00,86.52952
545.00,86.41933
546.00,86.45608
547.00,86.45487
548.00,86.42204
549.00,86.34412
550.00,86.47177
551.00,86.46604
552.00,86.45806
553.00,86.52920
554.00,86.44042
555.00,86.50133
556.00,86.54764
557.00,86.52104
558.00,86.45580
559.00,86.47892
560.00,86.40520
561.00,86.40029
562.00,86.47333
563.00,86.39306
564.00,86.44441
565.00,86.42211
566.00,86.56299
567.00,86.47767
568.00,86.47225
569.00,86.51941
570.00,86.46910
571.00,86.56321
572.00,86.53563
573.00,86.52161
574.00,86.55588
575.00,86.53079
576.00,86.52533
577.00,86.55099
578.00,86.53958
579.00,86.39575
580.00,86.47255
581.00,86.41841
582.00,86.42779
583.00,86.38542
584.00,86.42391
585.00,86.43355
586.00,86.42886
587.00,86.35584
588.00,86.39196
589.00,86.45496
590.00,86.44501
591.00,86.40642
592.00,86.43872
593.00,86.44309
594.00,86.35842
595.00,86.53023
596.00,86.32172
597.00,86.36773
598.00,86.35318
599.00,86.40129
600.00,86.32752
601.00,86.42095
602.00,86.40899
603.00,86.41769
604.00,86.38753
605.00,86.40678
606.00,86.28297
607.00,86.43605
608.00,86.32321
609.00,86.54478
610.00,86.41016
611.00,86.45138
612.00,86.39427
613.00,86.51736
614.00,86.41515
615.00,86.60872
616.00,86.37367
617.00,86.45131
618.00,86.53192
619.00,86.50026
620.00,86.60126
621.00,86.56307
622.00,86.51559
623.00,86.42240
624.00,86.47679
625.00,86.49866
626.00,86.45303
627.00,86.42639
628.00,86.55945
629.00,86.40549
630.00,86.47279
631.00,86.55564
632.00,86.50696
633.00,86.46419
634.00,86.49254
635.00,86.56363
636.00,86.47456
637.00,86.42067
638.00,86.59768
639.00,86.50978
640.00,86.40360
641.00,86.42393
642.00,86.58598
643.00,86.60475
644.00,86.46174
645.00,86.57858
646.00,86.39677
647.00,86.42309
648.00,86.63221
649.00,86.61221
650.00,86.39222
651.00,86.52297
652.00,86.47338
653.00,86.57365
654.00,86.56926
655.00,86.42802
656.00,86.76596
657.00,86.69311
658.00,86.70670
659.00,86.76727
660.00,86.54952
661.00,86.64128
662.00,86.42552
663.00,86.49573
664.00,86.62482
665.00,86.57608
666.00,86.64733
667.00,86.54629
668.00,86.42490
669.00,86.53134
670.00,86.77085
671.00,86.39984
672.00,86.69028
673.00,86.59949
674.00,86.59977
675.00,86.66196
676.00,86.68194
677.00,86.61878
678.00,86.46876
679.00,86.68707
680.00,86.75848
681.00,86.83686
682.00,86.79724
683.00,86.76418
684.00,86.88604
685.00,86.61941
686.00,86.68641
687.00,86.66455
688.00,86.66205
689.00,86.70710
690.00,86.54336
691.00,86.84928
692.00,86.76217
693.00,86.62430
694.00,86.90907
695.00,86.55002
696.00,86.73635
697.00,86.99940
698.00,86.90626
699.00,86.69027
700.00,86.68842
701.00,86.88561
702.00,86.81892
703.00,86.78444
704.00,87.12838
705.00,86.95444
706.00,86.94798
707.00,86.92443
708.00,86.85542
709.00,87.14899
710.00,87.07961
711.00,86.89845
712.00,87.17987
713.00,86.92844
714.00,87.13852
715.00,87.10086
716.00,87.33238
717.00,87.33346
718.00,87.15140
719.00,87.15772
720.00,87.18074
721.00,87.11492
722.00,86.92601
723.00,87.19949
724.00,87.21672
725.00,86.87397
726.00,87.28597
727.00,87.19456
728.00,87.68743
729.00,87.17067
730.00,87.46650
731.00,87.22665
732.00,87.46042
733.00,87.61677
734.00,87.46572
735.00,87.17129
736.00,87.52658
737.00,87.20695
738.00,87.30388
739.00,87.26877
740.00,87.52929
741.00,87.66662
742.00,87.26264
743.00,87.03033
744.00,87.29243
745.00,87.40892
746.00,87.45640
747.00,87.51155
748.00,87.33820
749.00,87.45792
750.00,87.26047
751.00,87.37991
752.00,87.78861
753.00,87.38540
754.00,87.04363
755.00,87.61843
756.00,87.48307
757.00,87.62128
758.00,87.68885
759.00,87.78120
760.00,87.28830
761.00,87.68747
762.00,87.68623
763.00,87.40943
764.00,87.14725
765.00,87.26824
766.00,87.40519
767.00,87.47256
768.00,88.14822
769.00,87.76257
770.00,87.76180
771.00,87.63120
772.00,87.55850
773.00,88.01724
774.00,87.30344
775.00,87.45818
776.00,88.02339
777.00,87.77187
778.00,87.34915
779.00,87.58916
780.00,88.20642
781.00,87.31516
782.00,88.01757
783.00,87.53187
784.00,86.96283
785.00,87.63005
786.00,87.79026
787.00,88.24070
788.00,88.06092
789.00,87.56917
790.00,87.45738
791.00,87.90276
792.00,87.33495
793.00,87.27205
794.00,87.53774
795.00,87.67454
796.00,87.49849
797.00,88.03736
798.00,87.67151
799.00,87.52266
800.00,87.42923
