"MN1534VSlow2 - RawData"
"Wavelength nm.","T%"
200.00,0.57441
201.00,0.44881
202.00,0.46416
203.00,0.41244
204.00,0.43142
205.00,0.27932
206.00,0.34280
207.00,0.34798
208.00,0.38671
209.00,0.26421
210.00,0.29841
211.00,0.30032
212.00,0.28820
213.00,0.27482
214.00,0.29035
215.00,0.30152
216.00,0.27817
217.00,0.26454
218.00,0.28323
219.00,0.25488
220.00,0.28849
221.00,0.26215
222.00,0.27899
223.00,0.27740
224.00,0.25445
225.00,0.29442
226.00,0.29257
227.00,0.31940
228.00,0.30865
229.00,0.32231
230.00,0.31186
231.00,0.29571
232.00,0.35342
233.00,0.40525
234.00,0.64376
235.00,1.15368
236.00,2.19636
237.00,4.15759
238.00,7.40367
239.00,11.74562
240.00,17.44376
241.00,23.80618
242.00,30.14172
243.00,36.03334
244.00,41.24025
245.00,45.37892
246.00,48.71570
247.00,51.20870
248.00,52.99762
249.00,54.42569
250.00,55.60719
251.00,56.69516
252.00,57.50307
253.00,58.24509
254.00,59.02625
255.00,59.56949
256.00,60.12899
257.00,60.64953
258.00,61.08497
259.00,61.47876
260.00,61.81174
261.00,62.61393
262.00,62.98646
263.00,63.43762
264.00,63.68799
265.00,63.89606
266.00,64.25362
267.00,64.57478
268.00,64.40684
269.00,64.91931
270.00,65.12516
271.00,64.98283
272.00,65.32610
273.00,65.57405
274.00,65.54524
275.00,65.86706
276.00,65.94406
277.00,66.16475
278.00,65.95138
279.00,66.21768
280.00,66.30245
281.00,66.44800
282.00,66.51208
283.00,66.66619
284.00,66.71655
285.00,66.75732
286.00,67.16380
287.00,67.12021
288.00,67.27573
289.00,67.50596
290.00,67.81134
291.00,68.06690
292.00,67.97679
293.00,67.87688
294.00,68.05347
295.00,68.22135
296.00,68.63906
297.00,68.42837
298.00,68.48209
299.00,68.71017
300.00,68.77888
301.00,68.70054
302.00,68.91748
303.00,68.79360
304.00,68.97877
305.00,68.85703
306.00,69.23712
307.00,69.49341
308.00,69.33842
309.00,69.47711
310.00,69.46487
311.00,69.41397
312.00,69.49942
313.00,69.63112
314.00,70.09588
315.00,69.88958
316.00,69.92809
317.00,70.11817
318.00,70.13975
319.00,70.05059
320.00,69.75538
321.00,69.85224
322.00,69.84701
323.00,70.08814
324.00,70.25266
325.00,69.35509
326.00,69.35797
327.00,69.43071
328.00,69.37488
329.00,69.40224
330.00,69.22452
331.00,69.09335
332.00,69.42525
333.00,69.18085
334.00,69.57840
335.00,69.63990
336.00,69.81629
337.00,69.73653
338.00,69.61254
339.00,69.78016
340.00,69.62521
341.00,69.52662
342.00,69.63220
343.00,69.54530
344.00,69.64406
345.00,69.71006
346.00,69.75169
347.00,69.68947
348.00,69.82219
349.00,70.09914
350.00,69.91597
351.00,70.05665
352.00,70.01854
353.00,70.01643
354.00,69.99813
355.00,69.87312
356.00,69.99083
357.00,69.90098
358.00,69.96654
359.00,70.04375
360.00,70.00658
361.00,70.19225
362.00,70.18587
363.00,70.30851
364.00,70.33958
365.00,70.36884
366.00,70.37752
367.00,70.31536
368.00,70.28701
369.00,70.17362
370.00,70.17781
371.00,70.27399
372.00,70.15275
373.00,70.32798
374.00,70.25741
375.00,70.35323
376.00,70.41844
377.00,70.60075
378.00,70.49160
379.00,70.69430
380.00,70.81082
381.00,70.71804
382.00,70.65767
383.00,70.57912
384.00,70.63185
385.00,70.72445
386.00,70.52333
387.00,70.50632
388.00,70.51811
389.00,70.49007
390.00,70.58777
391.00,70.58297
392.00,70.73940
393.00,70.86180
394.00,70.89111
395.00,70.92476
396.00,70.99678
397.00,71.00822
398.00,71.11166
399.00,71.00421
400.00,71.10479
401.00,70.95633
402.00,70.90820
403.00,70.89478
404.00,70.80184
405.00,70.80923
406.00,70.81403
407.00,70.82909
408.00,70.87663
409.00,70.89890
410.00,71.06289
411.00,71.07527
412.00,71.06647
413.00,71.24325
414.00,71.33059
415.00,71.41479
416.00,71.46732
417.00,71.35685
418.00,71.32395
419.00,71.26531
420.00,71.21641
421.00,71.12908
422.00,71.04014
423.00,71.04884
424.00,70.87759
425.00,71.01671
426.00,70.94823
427.00,70.93324
428.00,70.98333
429.00,71.10124
430.00,71.14171
431.00,71.24716
432.00,71.30072
433.00,71.45898
434.00,71.53403
435.00,71.65319
436.00,71.67436
437.00,71.59590
438.00,71.79257
439.00,71.71032
440.00,71.64528
441.00,71.55974
442.00,71.51309
443.00,71.43669
444.00,71.30136
445.00,71.28913
446.00,71.23559
447.00,71.30926
448.00,71.08691
449.00,71.11509
450.00,71.20435
451.00,71.32258
452.00,71.39202
453.00,71.37661
454.00,71.50699
455.00,71.67438
456.00,71.64326
457.00,71.83682
458.00,71.89329
459.00,71.98185
460.00,72.02212
461.00,72.01115
462.00,72.08155
463.00,71.99977
464.00,71.95324
465.00,71.90535
466.00,71.73489
467.00,71.77140
468.00,71.72778
469.00,71.64158
470.00,71.49876
471.00,71.55411
472.00,71.47076
473.00,71.50081
474.00,71.46892
475.00,71.53323
476.00,71.51325
477.00,71.66597
478.00,71.70711
479.00,71.78711
480.00,71.88190
481.00,71.97217
482.00,72.13467
483.00,72.15884
484.00,72.25956
485.00,72.34402
486.00,72.43899
487.00,72.52102
488.00,72.36723
489.00,72.36336
490.00,72.44783
491.00,72.35239
492.00,72.23577
493.00,72.16979
494.00,72.20098
495.00,72.09172
496.00,71.91678
497.00,71.91777
498.00,71.84440
499.00,71.73302
500.00,71.79196
501.00,71.79040
502.00,71.79435
503.00,71.76487
504.00,71.75524
505.00,71.76872
506.00,71.87626
507.00,71.94020
508.00,72.03048
509.00,72.08850
510.00,72.22510
511.00,72.40769
512.00,72.45789
513.00,72.53847
514.00,72.60901
515.00,72.70977
516.00,72.71850
517.00,72.80442
518.00,72.76614
519.00,72.77348
520.00,72.77247
521.00,72.73506
522.00,72.67702
523.00,72.60649
524.00,72.57990
525.00,72.49320
526.00,72.43359
527.00,72.42006
528.00,72.24317
529.00,72.20631
530.00,72.13004
531.00,72.14237
532.00,71.99566
533.00,72.03968
534.00,71.99460
535.00,72.01363
536.00,72.09261
537.00,72.01880
538.00,72.00243
539.00,72.12116
540.00,72.14888
541.00,72.25544
542.00,72.32654
543.00,72.41907
544.00,72.50116
545.00,72.58751
546.00,72.72046
547.00,72.72909
548.00,72.84794
549.00,72.85064
550.00,72.95529
551.00,72.97957
552.00,73.08224
553.00,73.09204
554.00,73.10113
555.00,73.02305
556.00,73.00485
557.00,73.00795
558.00,73.02724
559.00,72.94540
560.00,72.86928
561.00,72.71404
562.00,72.65188
563.00,72.58995
564.00,72.48938
565.00,72.44194
566.00,72.38989
567.00,72.29838
568.00,72.20680
569.00,72.16904
570.00,72.11133
571.00,72.16727
572.00,72.17264
573.00,72.14780
574.00,72.20417
575.00,72.21451
576.00,72.28423
577.00,72.28569
578.00,72.31159
579.00,72.39094
580.00,72.44368
581.00,72.48386
582.00,72.53372
583.00,72.59855
584.00,72.67876
585.00,72.84394
586.00,72.84019
587.00,72.94107
588.00,73.07236
589.00,73.19044
590.00,73.20574
591.00,73.27331
592.00,73.41802
593.00,73.36443
594.00,73.31850
595.00,73.29932
596.00,73.38349
597.00,73.29983
598.00,73.31706
599.00,73.26463
600.00,73.17888
601.00,73.07808
602.00,73.01630
603.00,72.97658
604.00,72.87518
605.00,72.84768
606.00,72.79041
607.00,72.69882
608.00,72.64808
609.00,72.59640
610.00,72.51353
611.00,72.47763
612.00,72.51599
613.00,72.41995
614.00,72.34135
615.00,72.37294
616.00,72.38002
617.00,72.39808
618.00,72.33972
619.00,72.38250
620.00,72.54118
621.00,72.50497
622.00,72.55660
623.00,72.66222
624.00,72.68278
625.00,72.74822
626.00,72.80379
627.00,72.95912
628.00,73.01711
629.00,73.09884
630.00,73.16357
631.00,73.25502
632.00,73.31125
633.00,73.43044
634.00,73.49293
635.00,73.49543
636.00,73.62831
637.00,73.67079
638.00,73.65956
639.00,73.64094
640.00,73.73025
641.00,73.67612
642.00,73.78647
643.00,73.71767
644.00,73.71988
645.00,73.70232
646.00,73.60580
647.00,73.60627
648.00,73.57459
649.00,73.53315
650.00,73.43147
651.00,73.46864
652.00,73.47854
653.00,73.39745
654.00,73.29258
655.00,73.24392
656.00,73.07861
657.00,73.12298
658.00,73.13340
659.00,72.96299
660.00,72.93179
661.00,72.95650
662.00,73.00003
663.00,72.95110
664.00,72.75748
665.00,72.82451
666.00,72.83483
667.00,72.73300
668.00,72.80466
669.00,72.83055
670.00,72.85606
671.00,72.86994
672.00,72.95671
673.00,73.03583
674.00,73.07711
675.00,73.05900
676.00,73.11125
677.00,73.19657
678.00,73.25487
679.00,73.36423
680.00,73.40601
681.00,73.41415
682.00,73.55850
683.00,73.67157
684.00,73.72426
685.00,73.81394
686.00,73.81978
687.00,73.88307
688.00,73.93152
689.00,74.01737
690.00,74.06856
691.00,74.19441
692.00,74.04128
693.00,74.19891
694.00,74.15003
695.00,74.17605
696.00,74.16642
697.00,74.24505
698.00,74.24528
699.00,74.13445
700.00,74.18681
701.00,74.11337
702.00,73.97715
703.00,74.06498
704.00,73.99583
705.00,74.02196
706.00,74.06099
707.00,74.04726
708.00,73.87518
709.00,73.85218
710.00,73.80834
711.00,73.72150
712.00,73.65329
713.00,73.65200
714.00,73.52368
715.00,73.46511
716.00,73.40506
717.00,73.42455
718.00,73.34242
719.00,73.34425
720.00,73.36563
721.00,73.19537
722.00,73.30382
723.00,73.34751
724.00,73.30260
725.00,73.30918
726.00,73.25826
727.00,73.35678
728.00,73.30658
729.00,73.09574
730.00,73.43756
731.00,73.41006
732.00,73.33263
733.00,73.55418
734.00,73.52993
735.00,73.49223
736.00,73.59827
737.00,73.67233
738.00,73.70909
739.00,73.84382
740.00,73.74673
741.00,73.93507
742.00,73.96273
743.00,74.12941
744.00,74.14032
745.00,74.15924
746.00,74.05207
747.00,74.35482
748.00,74.42778
749.00,74.43702
750.00,74.48339
751.00,74.58791
752.00,74.60920
753.00,74.49901
754.00,74.69269
755.00,74.64273
756.00,74.65763
757.00,74.77205
758.00,74.88768
759.00,74.89321
760.00,74.83078
761.00,74.89582
762.00,74.96971
763.00,74.90318
764.00,74.94167
765.00,74.94146
766.00,74.95990
767.00,74.89100
768.00,74.74286
769.00,74.84165
770.00,74.60703
771.00,74.68368
772.00,74.70823
773.00,74.40035
774.00,74.09240
775.00,74.34549
776.00,74.41946
777.00,74.16689
778.00,74.26384
779.00,74.29430
780.00,74.07804
781.00,74.11678
782.00,74.16406
783.00,73.99696
784.00,73.65296
785.00,73.73735
786.00,73.68008
787.00,74.07666
788.00,73.72782
789.00,73.59650
790.00,73.90397
791.00,73.51039
792.00,73.63177
793.00,73.40444
794.00,73.68505
795.00,73.61053
796.00,73.48324
797.00,73.53075
798.00,73.49285
799.00,73.68543
800.00,73.75022
