"SapphirePaintVSlow - RawData"
"Wavelength nm.","T%"
200.00,46.02297
201.00,46.08492
202.00,46.62013
203.00,49.08479
204.00,49.29056
205.00,49.63486
206.00,50.48490
207.00,51.51533
208.00,51.35056
209.00,51.68728
210.00,52.43217
211.00,52.68763
212.00,52.85504
213.00,52.74709
214.00,52.86376
215.00,53.21230
216.00,53.06049
217.00,53.52938
218.00,53.27324
219.00,53.68041
220.00,53.28702
221.00,53.87977
222.00,53.53956
223.00,53.69086
224.00,53.77786
225.00,54.11272
226.00,54.30872
227.00,54.56554
228.00,54.63920
229.00,55.18202
230.00,55.10061
231.00,55.50786
232.00,55.68101
233.00,56.39666
234.00,56.29985
235.00,56.63887
236.00,57.09409
237.00,57.20682
238.00,57.73245
239.00,58.05110
240.00,58.40988
241.00,58.47017
242.00,58.66955
243.00,58.92679
244.00,59.13729
245.00,59.43404
246.00,59.70525
247.00,59.87437
248.00,59.85403
249.00,60.37387
250.00,60.41453
251.00,60.57555
252.00,60.83306
253.00,60.95340
254.00,60.92713
255.00,60.97049
256.00,61.19795
257.00,61.34812
258.00,61.44887
259.00,61.48171
260.00,61.52355
261.00,61.60095
262.00,61.81768
263.00,62.01798
264.00,61.83125
265.00,61.72717
266.00,61.85781
267.00,61.97672
268.00,61.97320
269.00,61.89136
270.00,61.92469
271.00,62.12904
272.00,62.00980
273.00,62.07920
274.00,62.13069
275.00,62.17719
276.00,62.12929
277.00,62.17884
278.00,62.27969
279.00,62.31391
280.00,62.37657
281.00,62.46951
282.00,62.59989
283.00,62.55202
284.00,62.68545
285.00,62.77001
286.00,62.93072
287.00,63.19489
288.00,63.27567
289.00,63.39599
290.00,63.44002
291.00,63.29066
292.00,63.54589
293.00,63.72527
294.00,63.85257
295.00,64.00734
296.00,63.89834
297.00,63.98918
298.00,63.97217
299.00,64.21806
300.00,64.28646
301.00,64.25506
302.00,64.44846
303.00,64.45853
304.00,64.42656
305.00,64.63079
306.00,64.79574
307.00,64.71802
308.00,64.64108
309.00,64.97498
310.00,64.95405
311.00,64.77939
312.00,64.89267
313.00,64.71450
314.00,64.99675
315.00,65.23488
316.00,65.00070
317.00,65.21683
318.00,65.42507
319.00,65.14016
320.00,65.37037
321.00,65.55452
322.00,65.16561
323.00,65.36328
324.00,65.58780
325.00,65.28744
326.00,65.65852
327.00,65.32298
328.00,65.43810
329.00,65.46066
330.00,65.52725
331.00,65.62205
332.00,65.51874
333.00,65.77833
334.00,65.71555
335.00,65.77502
336.00,65.76903
337.00,65.73002
338.00,66.01074
339.00,65.94952
340.00,65.85272
341.00,65.92813
342.00,65.97986
343.00,66.05370
344.00,66.03950
345.00,65.94322
346.00,66.10888
347.00,66.11231
348.00,66.12930
349.00,66.12751
350.00,66.12637
351.00,66.14500
352.00,66.21132
353.00,66.23908
354.00,66.27482
355.00,66.24604
356.00,66.33692
357.00,66.37233
358.00,66.36612
359.00,66.43696
360.00,66.29776
361.00,66.22113
362.00,66.27516
363.00,66.42081
364.00,66.20545
365.00,66.42835
366.00,66.44705
367.00,66.34576
368.00,66.43656
369.00,66.50428
370.00,66.40655
371.00,66.60228
372.00,66.41452
373.00,66.56073
374.00,66.59136
375.00,66.62524
376.00,66.52675
377.00,66.50237
378.00,66.58431
379.00,66.60827
380.00,66.68713
381.00,66.69983
382.00,66.62891
383.00,66.62981
384.00,66.69794
385.00,66.67306
386.00,66.75731
387.00,66.71425
388.00,66.81157
389.00,66.75067
390.00,66.65996
391.00,66.67102
392.00,66.82032
393.00,66.77166
394.00,66.85854
395.00,66.67409
396.00,66.88051
397.00,66.82202
398.00,66.84200
399.00,66.82007
400.00,66.88045
401.00,66.94426
402.00,66.91423
403.00,66.98945
404.00,66.90237
405.00,66.91399
406.00,66.94652
407.00,67.01827
408.00,67.02595
409.00,66.99460
410.00,67.08405
411.00,66.94292
412.00,67.06358
413.00,66.97712
414.00,67.06890
415.00,67.16599
416.00,67.15649
417.00,67.18881
418.00,67.10998
419.00,67.19910
420.00,67.15074
421.00,67.24642
422.00,67.20487
423.00,67.22162
424.00,67.21275
425.00,67.25990
426.00,67.32705
427.00,67.35548
428.00,67.19137
429.00,67.26019
430.00,67.26696
431.00,67.41703
432.00,67.36431
433.00,67.38471
434.00,67.35576
435.00,67.41570
436.00,67.35260
437.00,67.39549
438.00,67.38884
439.00,67.41064
440.00,67.40555
441.00,67.44099
442.00,67.44257
443.00,67.49730
444.00,67.46286
445.00,67.56848
446.00,67.47128
447.00,67.51481
448.00,67.52711
449.00,67.49325
450.00,67.54225
451.00,67.53925
452.00,67.58007
453.00,67.57339
454.00,67.62722
455.00,67.58901
456.00,67.61556
457.00,67.62457
458.00,67.60020
459.00,67.59958
460.00,67.60002
461.00,67.62431
462.00,67.67617
463.00,67.69654
464.00,67.66919
465.00,67.78249
466.00,67.77261
467.00,67.71660
468.00,67.77279
469.00,67.76684
470.00,67.77313
471.00,67.76692
472.00,67.77152
473.00,67.75993
474.00,67.81230
475.00,67.81635
476.00,67.80469
477.00,67.84082
478.00,67.80283
479.00,67.85344
480.00,67.83950
481.00,67.88994
482.00,67.88673
483.00,67.93915
484.00,67.85355
485.00,67.86783
486.00,67.88406
487.00,67.92691
488.00,67.89779
489.00,67.93949
490.00,67.92908
491.00,67.95503
492.00,67.97630
493.00,67.94556
494.00,67.96994
495.00,67.95663
496.00,67.96938
497.00,68.00537
498.00,68.03952
499.00,68.00367
500.00,68.05767
501.00,68.05055
502.00,68.04019
503.00,68.10399
504.00,68.05904
505.00,68.08060
506.00,68.09345
507.00,68.14417
508.00,68.13715
509.00,68.12351
510.00,68.10833
511.00,68.17988
512.00,68.15873
513.00,68.15044
514.00,68.16283
515.00,68.17897
516.00,68.22067
517.00,68.16624
518.00,68.17842
519.00,68.27677
520.00,68.19937
521.00,68.20510
522.00,68.34834
523.00,68.26008
524.00,68.27891
525.00,68.24396
526.00,68.33231
527.00,68.27228
528.00,68.33983
529.00,68.31639
530.00,68.31411
531.00,68.37243
532.00,68.31630
533.00,68.35303
534.00,68.36824
535.00,68.40370
536.00,68.42048
537.00,68.36113
538.00,68.36114
539.00,68.40328
540.00,68.37077
541.00,68.44562
542.00,68.41738
543.00,68.43592
544.00,68.43825
545.00,68.44432
546.00,68.45959
547.00,68.46272
548.00,68.52341
549.00,68.54185
550.00,68.49619
551.00,68.56983
552.00,68.51289
553.00,68.54586
554.00,68.52810
555.00,68.55862
556.00,68.59673
557.00,68.58760
558.00,68.55467
559.00,68.53302
560.00,68.62142
561.00,68.64645
562.00,68.60197
563.00,68.61198
564.00,68.63793
565.00,68.70230
566.00,68.70528
567.00,68.73982
568.00,68.71347
569.00,68.75236
570.00,68.71148
571.00,68.70962
572.00,68.71102
573.00,68.75384
574.00,68.73764
575.00,68.76720
576.00,68.80581
577.00,68.76627
578.00,68.77542
579.00,68.77976
580.00,68.78591
581.00,68.79593
582.00,68.76222
583.00,68.85331
584.00,68.81965
585.00,68.83703
586.00,68.82455
587.00,68.87448
588.00,68.88750
589.00,68.87882
590.00,68.94588
591.00,68.85532
592.00,68.88292
593.00,68.95678
594.00,68.93699
595.00,68.92824
596.00,68.96415
597.00,68.95955
598.00,68.96839
599.00,68.98762
600.00,69.00730
601.00,69.03765
602.00,69.03583
603.00,69.00547
604.00,69.07333
605.00,69.00583
606.00,69.06927
607.00,69.06956
608.00,69.10496
609.00,69.08275
610.00,69.10016
611.00,69.06328
612.00,69.13165
613.00,69.13671
614.00,69.19400
615.00,69.16878
616.00,69.12561
617.00,69.18414
618.00,69.19959
619.00,69.16131
620.00,69.21806
621.00,69.19834
622.00,69.20619
623.00,69.24955
624.00,69.28232
625.00,69.24796
626.00,69.29308
627.00,69.28909
628.00,69.25416
629.00,69.25092
630.00,69.38097
631.00,69.36936
632.00,69.32241
633.00,69.33163
634.00,69.39409
635.00,69.43591
636.00,69.39770
637.00,69.42618
638.00,69.39196
639.00,69.41960
640.00,69.49041
641.00,69.47004
642.00,69.44203
643.00,69.45431
644.00,69.40483
645.00,69.46861
646.00,69.48382
647.00,69.47830
648.00,69.52190
649.00,69.48830
650.00,69.54848
651.00,69.58531
652.00,69.52104
653.00,69.53326
654.00,69.53156
655.00,69.57691
656.00,69.60995
657.00,69.63993
658.00,69.56203
659.00,69.58972
660.00,69.61608
661.00,69.66657
662.00,69.65237
663.00,69.71076
664.00,69.70876
665.00,69.76112
666.00,69.59150
667.00,69.72989
668.00,69.80712
669.00,69.77018
670.00,69.73984
671.00,69.75577
672.00,69.67850
673.00,69.77875
674.00,69.84683
675.00,69.77030
676.00,69.81681
677.00,69.86613
678.00,69.89349
679.00,69.86938
680.00,69.97384
681.00,69.93242
682.00,69.87513
683.00,69.85654
684.00,69.89715
685.00,69.93880
686.00,69.93116
687.00,70.01415
688.00,69.95462
689.00,69.93172
690.00,69.95408
691.00,69.97212
692.00,69.92390
693.00,70.04777
694.00,70.01893
695.00,69.98652
696.00,70.03475
697.00,70.03611
698.00,70.10653
699.00,70.06834
700.00,70.15756
701.00,70.12141
702.00,70.15097
703.00,70.10319
704.00,70.15178
705.00,70.17403
706.00,70.22745
707.00,70.28706
708.00,70.17271
709.00,70.30132
710.00,70.14568
711.00,70.19943
712.00,70.24617
713.00,70.27856
714.00,70.18344
715.00,70.29917
716.00,70.16947
717.00,70.29405
718.00,70.29128
719.00,70.31562
720.00,70.33532
721.00,70.27019
722.00,70.34737
723.00,70.35521
724.00,70.40439
725.00,70.42575
726.00,70.45937
727.00,70.38937
728.00,70.42297
729.00,70.21395
730.00,70.47656
731.00,70.40102
732.00,70.43869
733.00,70.55137
734.00,70.32920
735.00,70.47995
736.00,70.41388
737.00,70.50097
738.00,70.62776
739.00,70.37362
740.00,70.56240
741.00,70.45772
742.00,70.40135
743.00,70.47436
744.00,70.46387
745.00,70.54394
746.00,70.34073
747.00,70.67996
748.00,70.65161
749.00,70.58457
750.00,70.62863
751.00,70.42561
752.00,70.80368
753.00,70.54828
754.00,70.45170
755.00,70.45959
756.00,70.80750
757.00,70.69370
758.00,70.89539
759.00,70.66681
760.00,70.60920
761.00,70.85384
762.00,70.67810
763.00,70.80085
764.00,70.87439
765.00,70.73796
766.00,70.67704
767.00,70.62021
768.00,70.83687
769.00,70.67493
770.00,70.77284
771.00,70.78200
772.00,70.65840
773.00,70.92580
774.00,70.80610
775.00,70.87092
776.00,70.93714
777.00,70.71933
778.00,70.79346
779.00,70.67730
780.00,70.84911
781.00,70.92828
782.00,70.91991
783.00,70.74846
784.00,70.79861
785.00,70.84639
786.00,70.88572
787.00,70.97241
788.00,70.79768
789.00,70.84075
790.00,70.62318
791.00,70.84688
792.00,70.84982
793.00,70.89012
794.00,71.03745
795.00,71.08700
796.00,70.91531
797.00,71.00618
798.00,71.01225
799.00,71.04866
800.00,71.05958
