"DiffRefSampleBVSlow070622 - RawData"
"Wavelength nm.","R%"
190.00,11.06513
191.00,9.99337
192.00,9.84176
193.00,9.55503
194.00,9.38146
195.00,8.96021
196.00,8.79976
197.00,8.63945
198.00,8.61640
199.00,8.48604
200.00,8.35202
201.00,8.18063
202.00,8.18595
203.00,8.27181
204.00,8.29824
205.00,8.21666
206.00,8.17972
207.00,8.16584
208.00,8.16499
209.00,8.07166
210.00,8.11579
211.00,8.14576
212.00,7.99356
213.00,8.03093
214.00,7.91510
215.00,7.86290
216.00,7.82187
217.00,7.73799
218.00,7.60968
219.00,7.57948
220.00,7.50653
221.00,7.39647
222.00,7.34817
223.00,7.30174
224.00,7.24389
225.00,7.17554
226.00,7.16521
227.00,7.12355
228.00,7.02332
229.00,6.98459
230.00,6.95102
231.00,6.87015
232.00,6.87596
233.00,6.85429
234.00,6.79036
235.00,6.74019
236.00,6.74825
237.00,6.66522
238.00,6.68419
239.00,6.62859
240.00,6.59931
241.00,6.57094
242.00,6.52329
243.00,6.47218
244.00,6.42780
245.00,6.37626
246.00,6.30119
247.00,6.24000
248.00,6.19657
249.00,6.11174
250.00,6.13589
251.00,6.19799
252.00,6.29889
253.00,6.50516
254.00,6.79316
255.00,7.15943
256.00,7.57411
257.00,8.03578
258.00,8.47929
259.00,8.98316
260.00,9.58954
261.00,10.30790
262.00,11.23417
263.00,12.24452
264.00,13.33250
265.00,14.48503
266.00,15.50724
267.00,16.49608
268.00,17.26066
269.00,17.82380
270.00,18.19083
271.00,18.41909
272.00,18.48012
273.00,18.50101
274.00,18.50077
275.00,18.53678
276.00,18.61994
277.00,18.83981
278.00,19.09038
279.00,19.39850
280.00,19.81589
281.00,20.20032
282.00,20.63647
283.00,21.05762
284.00,21.37168
285.00,21.63627
286.00,21.80368
287.00,21.83415
288.00,21.84242
289.00,21.76798
290.00,21.65672
291.00,21.46707
292.00,21.26704
293.00,21.02565
294.00,20.84224
295.00,20.69496
296.00,20.51107
297.00,20.46595
298.00,20.37078
299.00,20.39397
300.00,20.47226
301.00,20.59396
302.00,20.72987
303.00,20.86098
304.00,21.07623
305.00,21.24822
306.00,21.43435
307.00,21.50816
308.00,21.70007
309.00,21.77915
310.00,21.82768
311.00,21.83528
312.00,21.86722
313.00,21.82141
314.00,21.69882
315.00,21.59902
316.00,21.41117
317.00,21.18861
318.00,21.04604
319.00,20.83630
320.00,20.61004
321.00,20.42528
322.00,20.26992
323.00,20.12627
324.00,19.99305
325.00,19.86524
326.00,19.84897
327.00,19.79347
328.00,19.84103
329.00,19.85778
330.00,19.89705
331.00,19.95465
332.00,20.02149
333.00,20.14188
334.00,20.20295
335.00,20.32855
336.00,20.43430
337.00,20.51098
338.00,20.61602
339.00,20.67592
340.00,20.66202
341.00,20.74074
342.00,20.75338
343.00,20.77342
344.00,20.73498
345.00,20.68099
346.00,20.59668
347.00,20.47722
348.00,20.38515
349.00,20.26242
350.00,20.08454
351.00,19.98128
352.00,19.83261
353.00,19.70599
354.00,19.57138
355.00,19.41158
356.00,19.30238
357.00,19.17109
358.00,19.05936
359.00,18.95898
360.00,18.88171
361.00,18.81965
362.00,18.74533
363.00,18.70510
364.00,18.66615
365.00,18.68923
366.00,18.67362
367.00,18.67449
368.00,18.74842
369.00,18.76666
370.00,18.83725
371.00,18.86115
372.00,18.94991
373.00,19.00860
374.00,19.08311
375.00,19.12391
376.00,19.20755
377.00,19.22768
378.00,19.26843
379.00,19.32974
380.00,19.36397
381.00,19.40365
382.00,19.42835
383.00,19.42325
384.00,19.41223
385.00,19.39189
386.00,19.37975
387.00,19.33123
388.00,19.30545
389.00,19.24031
390.00,19.15735
391.00,19.10637
392.00,19.00815
393.00,18.92701
394.00,18.81454
395.00,18.74765
396.00,18.64357
397.00,18.52236
398.00,18.43246
399.00,18.33045
400.00,18.23854
401.00,18.15691
402.00,18.03787
403.00,17.98794
404.00,17.89061
405.00,17.80927
406.00,17.74515
407.00,17.68207
408.00,17.61249
409.00,17.59410
410.00,17.54896
411.00,17.49334
412.00,17.47338
413.00,17.43710
414.00,17.42539
415.00,17.42375
416.00,17.42173
417.00,17.42329
418.00,17.43440
419.00,17.45772
420.00,17.46662
421.00,17.49338
422.00,17.51860
423.00,17.55283
424.00,17.58016
425.00,17.62325
426.00,17.65021
427.00,17.69218
428.00,17.73082
429.00,17.77042
430.00,17.78281
431.00,17.83647
432.00,17.86661
433.00,17.88102
434.00,17.91149
435.00,17.92644
436.00,17.93825
437.00,17.93521
438.00,17.96618
439.00,17.96693
440.00,17.95885
441.00,17.95282
442.00,17.93618
443.00,17.91584
444.00,17.90380
445.00,17.86039
446.00,17.82051
447.00,17.77901
448.00,17.74267
449.00,17.69262
450.00,17.64242
451.00,17.58676
452.00,17.53525
453.00,17.47266
454.00,17.40405
455.00,17.33877
456.00,17.27493
457.00,17.21979
458.00,17.15169
459.00,17.07108
460.00,16.99627
461.00,16.93736
462.00,16.87940
463.00,16.81077
464.00,16.75207
465.00,16.68169
466.00,16.63034
467.00,16.56732
468.00,16.51257
469.00,16.46270
470.00,16.40852
471.00,16.36021
472.00,16.31943
473.00,16.28053
474.00,16.23383
475.00,16.19717
476.00,16.17520
477.00,16.14767
478.00,16.12872
479.00,16.11389
480.00,16.08889
481.00,16.07831
482.00,16.07372
483.00,16.05842
484.00,16.05776
485.00,16.05621
486.00,16.06287
487.00,16.05499
488.00,16.06181
489.00,16.07370
490.00,16.07953
491.00,16.08914
492.00,16.09921
493.00,16.11549
494.00,16.12805
495.00,16.14117
496.00,16.17373
497.00,16.17333
498.00,16.19053
499.00,16.21446
500.00,16.23657
501.00,16.26365
502.00,16.28178
503.00,16.29779
504.00,16.30822
505.00,16.33574
506.00,16.36256
507.00,16.36495
508.00,16.37951
509.00,16.39781
510.00,16.41684
511.00,16.42428
512.00,16.42981
513.00,16.43668
514.00,16.45161
515.00,16.45485
516.00,16.45260
517.00,16.45416
518.00,16.45998
519.00,16.45281
520.00,16.44455
521.00,16.43485
522.00,16.42120
523.00,16.41711
524.00,16.39858
525.00,16.37167
526.00,16.36411
527.00,16.33713
528.00,16.31830
529.00,16.28851
530.00,16.25736
531.00,16.23052
532.00,16.18605
533.00,16.15623
534.00,16.12169
535.00,16.09026
536.00,16.04736
537.00,16.00627
538.00,15.96909
539.00,15.92652
540.00,15.87612
541.00,15.83886
542.00,15.80050
543.00,15.75273
544.00,15.70311
545.00,15.65532
546.00,15.61618
547.00,15.57113
548.00,15.52759
549.00,15.47951
550.00,15.44083
551.00,15.38655
552.00,15.33915
553.00,15.29128
554.00,15.25206
555.00,15.20367
556.00,15.17017
557.00,15.12673
558.00,15.09426
559.00,15.05301
560.00,15.01194
561.00,14.98287
562.00,14.94103
563.00,14.90227
564.00,14.87774
565.00,14.84756
566.00,14.80608
567.00,14.78641
568.00,14.74989
569.00,14.72992
570.00,14.70837
571.00,14.68196
572.00,14.65984
573.00,14.64157
574.00,14.62046
575.00,14.59619
576.00,14.58294
577.00,14.56132
578.00,14.54826
579.00,14.53648
580.00,14.52343
581.00,14.51608
582.00,14.50589
583.00,14.48976
584.00,14.49011
585.00,14.48794
586.00,14.48737
587.00,14.48715
588.00,14.47103
589.00,14.46734
590.00,14.47394
591.00,14.47119
592.00,14.48753
593.00,14.48774
594.00,14.49124
595.00,14.49058
596.00,14.50012
597.00,14.50462
598.00,14.50938
599.00,14.51329
600.00,14.52393
601.00,14.54123
602.00,14.54576
603.00,14.56532
604.00,14.56406
605.00,14.57291
606.00,14.58581
607.00,14.59018
608.00,14.60228
609.00,14.61104
610.00,14.61776
611.00,14.63215
612.00,14.64368
613.00,14.66030
614.00,14.66420
615.00,14.66737
616.00,14.68886
617.00,14.68915
618.00,14.69982
619.00,14.70109
620.00,14.70933
621.00,14.71965
622.00,14.73188
623.00,14.73875
624.00,14.74447
625.00,14.74787
626.00,14.75123
627.00,14.75596
628.00,14.76677
629.00,14.75841
630.00,14.76758
631.00,14.76091
632.00,14.75435
633.00,14.76204
634.00,14.77989
635.00,14.77231
636.00,14.75571
637.00,14.75303
638.00,14.74934
639.00,14.75583
640.00,14.73902
641.00,14.72737
642.00,14.72047
643.00,14.71299
644.00,14.69308
645.00,14.68536
646.00,14.68396
647.00,14.67986
648.00,14.64235
649.00,14.63824
650.00,14.63371
651.00,14.61588
652.00,14.58060
653.00,14.57964
654.00,14.55770
655.00,14.53007
656.00,14.51718
657.00,14.50196
658.00,14.48065
659.00,14.44297
660.00,14.44870
661.00,14.40362
662.00,14.38053
663.00,14.35829
664.00,14.34987
665.00,14.30590
666.00,14.28970
667.00,14.26239
668.00,14.23389
669.00,14.21223
670.00,14.20117
671.00,14.16907
672.00,14.12134
673.00,14.10366
674.00,14.07403
675.00,14.04328
676.00,14.01891
677.00,13.98350
678.00,13.95450
679.00,13.92475
680.00,13.90679
681.00,13.87759
682.00,13.84340
683.00,13.80312
684.00,13.78122
685.00,13.74945
686.00,13.72818
687.00,13.69629
688.00,13.65795
689.00,13.63507
690.00,13.61798
691.00,13.58095
692.00,13.54204
693.00,13.53171
694.00,13.49115
695.00,13.48422
696.00,13.45195
697.00,13.41367
698.00,13.40081
699.00,13.36858
700.00,13.34861
701.00,13.32219
702.00,13.30499
703.00,13.28140
704.00,13.24382
705.00,13.23294
706.00,13.20305
707.00,13.17335
708.00,13.16256
709.00,13.14700
710.00,13.12749
711.00,13.11716
712.00,13.08369
713.00,13.06767
714.00,13.04296
715.00,13.01919
716.00,13.01919
717.00,12.97561
718.00,12.96453
719.00,12.97890
720.00,12.94423
721.00,12.94197
722.00,12.91153
723.00,12.89001
724.00,12.90185
725.00,12.88056
726.00,12.89403
727.00,12.85071
728.00,12.83257
729.00,12.84848
730.00,12.82179
731.00,12.80438
732.00,12.80608
733.00,12.80487
734.00,12.78868
735.00,12.79158
736.00,12.79353
737.00,12.76863
738.00,12.76576
739.00,12.77672
740.00,12.76798
741.00,12.73198
742.00,12.74864
743.00,12.72308
744.00,12.75129
745.00,12.71905
746.00,12.73302
747.00,12.72796
748.00,12.70713
749.00,12.72224
750.00,12.73351
751.00,12.73999
752.00,12.70290
753.00,12.74274
754.00,12.72470
755.00,12.70606
756.00,12.70832
757.00,12.69166
758.00,12.74196
759.00,12.70890
760.00,12.73969
761.00,12.68842
762.00,12.72079
763.00,12.70896
764.00,12.70766
765.00,12.74268
766.00,12.72780
767.00,12.72906
768.00,12.72830
769.00,12.74004
770.00,12.74466
771.00,12.72884
772.00,12.73094
773.00,12.72283
774.00,12.72990
775.00,12.76175
776.00,12.77647
777.00,12.74600
778.00,12.77051
779.00,12.75908
780.00,12.77841
781.00,12.79322
782.00,12.74186
783.00,12.80148
784.00,12.76024
785.00,12.81419
786.00,12.77698
787.00,12.81144
788.00,12.83792
789.00,12.82139
790.00,12.81932
791.00,12.82703
792.00,12.82118
793.00,12.85928
794.00,12.85896
795.00,12.87103
796.00,12.84193
797.00,12.84469
798.00,12.85252
799.00,12.88962
800.00,12.88695
801.00,12.90482
802.00,12.87794
803.00,12.88663
804.00,12.89434
805.00,12.88878
806.00,12.88179
807.00,12.91165
808.00,12.87022
809.00,12.89901
810.00,12.94654
811.00,12.86480
812.00,12.91817
813.00,12.90539
814.00,12.98382
815.00,12.93204
816.00,12.92535
817.00,12.90943
818.00,12.95026
819.00,12.95361
820.00,12.91471
821.00,12.92843
822.00,12.91054
823.00,12.92361
824.00,12.91689
825.00,12.94058
826.00,12.90110
827.00,12.91060
828.00,12.94364
829.00,12.93867
830.00,12.90324
831.00,12.98139
832.00,12.90348
833.00,12.88334
834.00,12.81985
835.00,12.90437
836.00,12.94850
837.00,12.91429
838.00,12.83188
839.00,12.89248
840.00,12.83741
841.00,12.84645
842.00,12.88191
843.00,12.96143
844.00,12.92709
845.00,12.90701
846.00,12.77656
847.00,12.86617
848.00,12.88800
849.00,12.85978
850.00,12.91760
851.00,12.88376
852.00,12.87265
853.00,13.02336
854.00,12.84802
855.00,12.94204
856.00,12.73459
857.00,12.91466
858.00,12.87467
859.00,12.75186
860.00,12.91869
861.00,12.78422
862.00,12.88594
863.00,13.03903
864.00,12.71076
865.00,12.81054
866.00,13.17314
867.00,12.83878
868.00,12.68679
869.00,12.66121
870.00,12.73428
871.00,12.55633
872.00,12.93741
873.00,12.14423
874.00,12.80138
875.00,12.41201
876.00,13.11674
877.00,12.49408
878.00,12.61261
879.00,11.90177
880.00,12.37152
881.00,12.58446
882.00,11.77864
883.00,12.61084
884.00,12.39549
885.00,12.17182
886.00,12.88995
887.00,12.87372
888.00,11.92811
889.00,12.47612
890.00,12.87341
891.00,12.46427
892.00,12.55193
893.00,12.50522
894.00,11.03708
895.00,12.77339
896.00,12.66603
897.00,12.46136
898.00,10.91148
899.00,12.26671
900.00,12.04234
