"MN1198V6C - RawData"
"Wavelength nm.","T%"
190.00,1.34398
191.00,0.72201
192.00,0.54623
193.00,0.48224
194.00,0.36251
195.00,0.26424
196.00,0.20788
197.00,0.17787
198.00,0.16657
199.00,0.15566
200.00,0.13711
201.00,0.12903
202.00,0.13025
203.00,0.11626
204.00,0.10866
205.00,0.08915
206.00,0.10104
207.00,0.07634
208.00,0.07219
209.00,0.06404
210.00,0.06658
211.00,0.05117
212.00,0.05856
213.00,0.03677
214.00,0.05667
215.00,0.05758
216.00,0.05118
217.00,0.05001
218.00,0.04589
219.00,0.05443
220.00,0.05034
221.00,0.05416
222.00,0.05012
223.00,0.05024
224.00,0.04680
225.00,0.04677
226.00,0.04845
227.00,0.04998
228.00,0.05408
229.00,0.04473
230.00,0.04256
231.00,0.04213
232.00,0.04552
233.00,0.04814
234.00,0.04446
235.00,0.04113
236.00,0.04010
237.00,0.03943
238.00,0.04687
239.00,0.04036
240.00,0.04357
241.00,0.05020
242.00,0.05661
243.00,0.07061
244.00,0.08718
245.00,0.11463
246.00,0.16346
247.00,0.23306
248.00,0.33532
249.00,0.49725
250.00,0.70825
251.00,1.03785
252.00,1.46403
253.00,2.06571
254.00,2.83911
255.00,3.84884
256.00,5.05205
257.00,6.51764
258.00,8.17567
259.00,9.97059
260.00,11.98013
261.00,14.21352
262.00,16.50644
263.00,18.88594
264.00,21.29267
265.00,23.60572
266.00,25.88612
267.00,28.00296
268.00,30.16845
269.00,32.17890
270.00,34.06131
271.00,35.70812
272.00,37.18875
273.00,38.65319
274.00,39.84751
275.00,40.93984
276.00,41.86895
277.00,42.78598
278.00,43.52293
279.00,44.34136
280.00,44.91032
281.00,45.51319
282.00,46.09498
283.00,46.58406
284.00,46.97459
285.00,47.37557
286.00,47.83437
287.00,48.15474
288.00,48.50434
289.00,48.76141
290.00,49.25897
291.00,49.62901
292.00,49.90141
293.00,50.15446
294.00,50.50758
295.00,50.87174
296.00,51.08638
297.00,51.24261
298.00,51.58921
299.00,51.84264
300.00,51.94400
301.00,52.06161
302.00,52.21814
303.00,52.42129
304.00,52.69328
305.00,52.70811
306.00,52.88125
307.00,53.10742
308.00,53.46189
309.00,53.73356
310.00,54.01359
311.00,54.23061
312.00,54.25584
313.00,54.58978
314.00,54.73579
315.00,54.90437
316.00,54.80515
317.00,55.02063
318.00,55.04422
319.00,55.16814
320.00,55.24144
321.00,55.33213
322.00,55.34104
323.00,55.38126
324.00,55.30480
325.00,55.40169
326.00,55.63557
327.00,55.90768
328.00,55.97469
329.00,56.11241
330.00,56.34621
331.00,56.49161
332.00,56.49619
333.00,56.51942
334.00,56.59206
335.00,56.63732
336.00,56.55193
337.00,56.63698
338.00,56.59227
339.00,56.54725
340.00,56.51723
341.00,56.52752
342.00,56.62958
343.00,56.71332
344.00,56.86902
345.00,57.12154
346.00,57.26237
347.00,57.26731
348.00,57.52288
349.00,57.64553
350.00,57.73939
351.00,57.80936
352.00,57.95749
353.00,58.05014
354.00,58.01393
355.00,58.02535
356.00,57.96326
357.00,57.90840
358.00,57.88928
359.00,57.89803
360.00,57.73683
361.00,57.71164
362.00,57.72301
363.00,57.64095
364.00,57.62264
365.00,57.67045
366.00,57.66704
367.00,57.80243
368.00,57.94188
369.00,57.95565
370.00,58.07189
371.00,58.25717
372.00,58.22624
373.00,58.58106
374.00,58.61962
375.00,58.75224
376.00,58.79176
377.00,58.86554
378.00,59.00078
379.00,58.99324
380.00,58.98335
381.00,59.02979
382.00,58.91207
383.00,58.90812
384.00,58.88946
385.00,58.83180
386.00,58.74575
387.00,58.68254
388.00,58.57133
389.00,58.50186
390.00,58.46967
391.00,58.46205
392.00,58.41182
393.00,58.42090
394.00,58.49184
395.00,58.51122
396.00,58.54344
397.00,58.61577
398.00,58.69389
399.00,58.84760
400.00,58.98685
401.00,59.12481
402.00,59.23215
403.00,59.32916
404.00,59.43680
405.00,59.57624
406.00,59.65493
407.00,59.77183
408.00,59.83825
409.00,59.93468
410.00,59.90971
411.00,59.95498
412.00,59.93583
413.00,59.87474
414.00,59.88845
415.00,59.82638
416.00,59.79453
417.00,59.71712
418.00,59.69312
419.00,59.61111
420.00,59.53565
421.00,59.45187
422.00,59.35135
423.00,59.30805
424.00,59.25888
425.00,59.22816
426.00,59.25003
427.00,59.21410
428.00,59.23977
429.00,59.25523
430.00,59.33843
431.00,59.31387
432.00,59.41564
433.00,59.52778
434.00,59.61332
435.00,59.71882
436.00,59.82063
437.00,59.96538
438.00,60.05823
439.00,60.18110
440.00,60.30336
441.00,60.37830
442.00,60.46522
443.00,60.63682
444.00,60.71293
445.00,60.76331
446.00,60.84078
447.00,60.84700
448.00,60.87854
449.00,60.91274
450.00,60.89219
451.00,60.89307
452.00,60.85952
453.00,60.81787
454.00,60.78019
455.00,60.68102
456.00,60.64957
457.00,60.54214
458.00,60.48403
459.00,60.42043
460.00,60.30334
461.00,60.25853
462.00,60.15331
463.00,60.11832
464.00,60.03597
465.00,60.00596
466.00,59.94741
467.00,59.90284
468.00,59.90539
469.00,59.90226
470.00,59.94943
471.00,59.91476
472.00,59.94803
473.00,59.99919
474.00,60.02686
475.00,60.15022
476.00,60.20308
477.00,60.26764
478.00,60.38747
479.00,60.48216
480.00,60.55538
481.00,60.71016
482.00,60.81293
483.00,60.89537
484.00,61.04005
485.00,61.14359
486.00,61.26128
487.00,61.34342
488.00,61.44483
489.00,61.54171
490.00,61.61695
491.00,61.63380
492.00,61.71960
493.00,61.77135
494.00,61.78967
495.00,61.82449
496.00,61.82536
497.00,61.86158
498.00,61.84109
499.00,61.78275
500.00,61.76741
501.00,61.76211
502.00,61.69482
503.00,61.60034
504.00,61.55346
505.00,61.51336
506.00,61.39433
507.00,61.35926
508.00,61.26634
509.00,61.15109
510.00,61.11465
511.00,61.05323
512.00,60.98660
513.00,60.90010
514.00,60.85530
515.00,60.76565
516.00,60.71871
517.00,60.68804
518.00,60.68838
519.00,60.61544
520.00,60.59704
521.00,60.58356
522.00,60.58303
523.00,60.61063
524.00,60.61791
525.00,60.65081
526.00,60.72237
527.00,60.72958
528.00,60.78532
529.00,60.89380
530.00,60.93196
531.00,61.03993
532.00,61.13396
533.00,61.19496
534.00,61.29423
535.00,61.40881
536.00,61.48487
537.00,61.62751
538.00,61.69792
539.00,61.81206
540.00,61.91605
541.00,62.00032
542.00,62.11042
543.00,62.22551
544.00,62.31721
545.00,62.38763
546.00,62.46011
547.00,62.54243
548.00,62.60749
549.00,62.64868
550.00,62.70753
551.00,62.77342
552.00,62.82238
553.00,62.79312
554.00,62.85496
555.00,62.86778
556.00,62.86429
557.00,62.82144
558.00,62.83290
559.00,62.79985
560.00,62.82514
561.00,62.77253
562.00,62.70789
563.00,62.66255
564.00,62.60237
565.00,62.58802
566.00,62.50419
567.00,62.47551
568.00,62.37112
569.00,62.31004
570.00,62.22472
571.00,62.16488
572.00,62.09438
573.00,62.00899
574.00,61.94339
575.00,61.88909
576.00,61.81779
577.00,61.76850
578.00,61.69421
579.00,61.64086
580.00,61.58133
581.00,61.54490
582.00,61.51706
583.00,61.46873
584.00,61.40872
585.00,61.40499
586.00,61.40607
587.00,61.39461
588.00,61.38262
589.00,61.37719
590.00,61.38095
591.00,61.39742
592.00,61.44031
593.00,61.45204
594.00,61.51880
595.00,61.53476
596.00,61.61293
597.00,61.65672
598.00,61.71029
599.00,61.77427
600.00,61.84174
601.00,61.94656
602.00,62.01330
603.00,62.09809
604.00,62.19394
605.00,62.31889
606.00,62.37375
607.00,62.46607
608.00,62.55290
609.00,62.63680
610.00,62.73291
611.00,62.82750
612.00,62.95752
613.00,62.98719
614.00,63.11582
615.00,63.21964
616.00,63.27664
617.00,63.34952
618.00,63.39994
619.00,63.50783
620.00,63.56142
621.00,63.67525
622.00,63.73923
623.00,63.83647
624.00,63.84115
625.00,63.90581
626.00,63.89252
627.00,63.95102
628.00,63.98448
629.00,64.04556
630.00,64.05533
631.00,64.03319
632.00,64.06578
633.00,64.06820
634.00,64.05963
635.00,64.03467
636.00,63.99053
637.00,64.00366
638.00,63.97952
639.00,63.95530
640.00,63.91913
641.00,63.89823
642.00,63.84513
643.00,63.77283
644.00,63.77677
645.00,63.67810
646.00,63.62664
647.00,63.56523
648.00,63.53850
649.00,63.44587
650.00,63.41633
651.00,63.34674
652.00,63.29221
653.00,63.23045
654.00,63.19842
655.00,63.14488
656.00,63.03741
657.00,62.97172
658.00,62.89681
659.00,62.84763
660.00,62.81317
661.00,62.76552
662.00,62.69836
663.00,62.65235
664.00,62.54277
665.00,62.56031
666.00,62.53700
667.00,62.45820
668.00,62.42239
669.00,62.41456
670.00,62.42936
671.00,62.37805
672.00,62.33184
673.00,62.32650
674.00,62.31040
675.00,62.32312
676.00,62.32105
677.00,62.32756
678.00,62.28934
679.00,62.35810
680.00,62.33715
681.00,62.36452
682.00,62.45219
683.00,62.47600
684.00,62.50020
685.00,62.42175
686.00,62.55646
687.00,62.57814
688.00,62.66385
689.00,62.71288
690.00,62.79531
691.00,62.81729
692.00,62.93910
693.00,62.95273
694.00,63.04126
695.00,63.06604
696.00,63.16123
697.00,63.25498
698.00,63.31440
699.00,63.36963
700.00,63.45639
701.00,63.52928
702.00,63.70778
703.00,63.74680
704.00,63.83028
705.00,63.89731
706.00,63.96682
707.00,64.07240
708.00,64.10058
709.00,64.18230
710.00,64.27423
711.00,64.36568
712.00,64.46760
713.00,64.52711
714.00,64.62622
715.00,64.68018
716.00,64.68917
717.00,64.82508
718.00,64.88721
719.00,64.93348
720.00,65.05038
721.00,65.06164
722.00,65.18345
723.00,65.19531
724.00,65.13901
725.00,65.22869
726.00,65.20690
727.00,65.32328
728.00,65.38646
729.00,65.33030
730.00,65.49715
731.00,65.40582
732.00,65.49084
733.00,65.41750
734.00,65.48174
735.00,65.47326
736.00,65.53709
737.00,65.51475
738.00,65.48231
739.00,65.50820
740.00,65.45935
741.00,65.52083
742.00,65.48327
743.00,65.43253
744.00,65.47481
745.00,65.38718
746.00,65.43758
747.00,65.32785
748.00,65.26880
749.00,65.25474
750.00,65.26936
751.00,65.08498
752.00,65.15230
753.00,65.05139
754.00,65.01212
755.00,65.05556
756.00,65.03636
757.00,64.90314
758.00,64.76554
759.00,64.76343
760.00,64.80088
761.00,64.79910
762.00,64.56158
763.00,64.62628
764.00,64.63767
765.00,64.43237
766.00,64.45091
767.00,64.33192
768.00,64.33395
769.00,64.29446
770.00,64.14557
771.00,64.22185
772.00,64.19598
773.00,64.07559
774.00,64.06180
775.00,64.05352
776.00,63.94175
777.00,63.97872
778.00,63.87483
779.00,63.80652
780.00,63.83370
781.00,63.75714
782.00,63.68698
783.00,63.73621
784.00,63.56098
785.00,63.56335
786.00,63.60074
787.00,63.59742
788.00,63.52165
789.00,63.55322
790.00,63.47007
791.00,63.46120
792.00,63.46015
793.00,63.37610
794.00,63.46040
795.00,63.40814
796.00,63.44612
797.00,63.47724
798.00,63.43234
799.00,63.37668
800.00,63.52486