"DiffRefSampleCVSlow070622 - RawData"
"Wavelength nm.","R%"
190.00,5.00201
191.00,4.53326
192.00,4.66193
193.00,4.56825
194.00,4.23092
195.00,4.54038
196.00,4.04436
197.00,4.17997
198.00,4.12060
199.00,4.03564
200.00,4.09401
201.00,4.18608
202.00,4.14928
203.00,4.09162
204.00,4.17271
205.00,4.12514
206.00,4.19431
207.00,4.24268
208.00,4.27058
209.00,4.26115
210.00,4.31558
211.00,4.32792
212.00,4.26605
213.00,4.27463
214.00,4.23497
215.00,4.27581
216.00,4.23601
217.00,4.19938
218.00,4.19617
219.00,4.15691
220.00,4.13305
221.00,4.08554
222.00,4.08978
223.00,4.05034
224.00,4.03284
225.00,4.03853
226.00,4.01762
227.00,3.99560
228.00,3.95990
229.00,3.96570
230.00,3.97303
231.00,3.94762
232.00,3.95184
233.00,3.95192
234.00,3.95560
235.00,3.96474
236.00,3.94534
237.00,3.96016
238.00,3.96487
239.00,3.98205
240.00,3.99016
241.00,3.96218
242.00,3.97305
243.00,3.95208
244.00,3.96785
245.00,3.96644
246.00,3.96416
247.00,3.98415
248.00,3.98102
249.00,3.98789
250.00,3.99572
251.00,4.04016
252.00,4.13026
253.00,4.29127
254.00,4.55105
255.00,4.98167
256.00,5.61133
257.00,6.33466
258.00,7.16103
259.00,7.94934
260.00,8.74286
261.00,9.50068
262.00,10.23608
263.00,10.97282
264.00,11.65086
265.00,12.40135
266.00,13.15660
267.00,13.93635
268.00,14.60775
269.00,15.23134
270.00,15.76767
271.00,16.14854
272.00,16.48373
273.00,16.65848
274.00,16.71847
275.00,16.77092
276.00,16.75899
277.00,16.67454
278.00,16.72307
279.00,16.73873
280.00,16.79180
281.00,16.85081
282.00,17.02693
283.00,17.23428
284.00,17.42888
285.00,17.66744
286.00,17.89143
287.00,18.03461
288.00,18.27172
289.00,18.41492
290.00,18.46712
291.00,18.52349
292.00,18.51066
293.00,18.50053
294.00,18.42730
295.00,18.30956
296.00,18.20635
297.00,18.08500
298.00,17.96410
299.00,17.84196
300.00,17.73034
301.00,17.65371
302.00,17.65592
303.00,17.59844
304.00,17.57346
305.00,17.69549
306.00,17.86414
307.00,17.91689
308.00,18.06107
309.00,18.07481
310.00,18.23006
311.00,18.33269
312.00,18.45364
313.00,18.48032
314.00,18.49994
315.00,18.65738
316.00,18.70107
317.00,18.61053
318.00,18.58653
319.00,18.54415
320.00,18.47885
321.00,18.35342
322.00,18.29625
323.00,18.13690
324.00,18.02939
325.00,17.87315
326.00,17.80669
327.00,17.70191
328.00,17.59440
329.00,17.56271
330.00,17.46490
331.00,17.40275
332.00,17.36345
333.00,17.35069
334.00,17.38397
335.00,17.38398
336.00,17.43092
337.00,17.50964
338.00,17.56475
339.00,17.58806
340.00,17.66900
341.00,17.70786
342.00,17.77251
343.00,17.87241
344.00,17.93411
345.00,18.00124
346.00,18.02214
347.00,18.04621
348.00,18.08825
349.00,18.06169
350.00,18.03955
351.00,18.02544
352.00,17.96605
353.00,17.93061
354.00,17.86778
355.00,17.80483
356.00,17.70900
357.00,17.62735
358.00,17.52893
359.00,17.43659
360.00,17.36781
361.00,17.25868
362.00,17.15490
363.00,17.06527
364.00,16.95897
365.00,16.89098
366.00,16.82166
367.00,16.74083
368.00,16.71533
369.00,16.68560
370.00,16.64509
371.00,16.64519
372.00,16.61807
373.00,16.67668
374.00,16.68315
375.00,16.69392
376.00,16.73473
377.00,16.75993
378.00,16.82579
379.00,16.85710
380.00,16.90955
381.00,16.95294
382.00,16.99182
383.00,17.02288
384.00,17.06239
385.00,17.12494
386.00,17.15277
387.00,17.17269
388.00,17.21372
389.00,17.23390
390.00,17.24672
391.00,17.24601
392.00,17.25730
393.00,17.24827
394.00,17.23577
395.00,17.20899
396.00,17.18374
397.00,17.13444
398.00,17.10024
399.00,17.04270
400.00,16.97675
401.00,16.93249
402.00,16.87640
403.00,16.81812
404.00,16.73513
405.00,16.67066
406.00,16.61388
407.00,16.53995
408.00,16.45865
409.00,16.40319
410.00,16.33826
411.00,16.25734
412.00,16.20324
413.00,16.14309
414.00,16.10253
415.00,16.05017
416.00,16.00894
417.00,15.95589
418.00,15.92746
419.00,15.91707
420.00,15.87081
421.00,15.86263
422.00,15.84314
423.00,15.82035
424.00,15.82419
425.00,15.82968
426.00,15.82781
427.00,15.84222
428.00,15.84119
429.00,15.86157
430.00,15.89820
431.00,15.90631
432.00,15.94383
433.00,15.96150
434.00,15.99696
435.00,16.01574
436.00,16.04250
437.00,16.07289
438.00,16.09846
439.00,16.13062
440.00,16.16463
441.00,16.18537
442.00,16.21683
443.00,16.24014
444.00,16.26176
445.00,16.26976
446.00,16.28908
447.00,16.29257
448.00,16.29905
449.00,16.31158
450.00,16.29730
451.00,16.29438
452.00,16.28738
453.00,16.27181
454.00,16.25253
455.00,16.22260
456.00,16.20539
457.00,16.17975
458.00,16.12528
459.00,16.10040
460.00,16.06132
461.00,16.02226
462.00,15.96859
463.00,15.93276
464.00,15.88153
465.00,15.82435
466.00,15.79756
467.00,15.73234
468.00,15.69033
469.00,15.64385
470.00,15.58650
471.00,15.54638
472.00,15.49049
473.00,15.45163
474.00,15.40362
475.00,15.35043
476.00,15.29924
477.00,15.26425
478.00,15.20674
479.00,15.16157
480.00,15.11293
481.00,15.08021
482.00,15.04604
483.00,15.01220
484.00,14.98506
485.00,14.94950
486.00,14.93703
487.00,14.90390
488.00,14.88166
489.00,14.86930
490.00,14.85522
491.00,14.84891
492.00,14.83572
493.00,14.82823
494.00,14.82291
495.00,14.80681
496.00,14.82214
497.00,14.81209
498.00,14.81459
499.00,14.81568
500.00,14.83070
501.00,14.83278
502.00,14.83775
503.00,14.86006
504.00,14.86737
505.00,14.87568
506.00,14.90478
507.00,14.92039
508.00,14.91730
509.00,14.94769
510.00,14.97167
511.00,14.97602
512.00,14.98924
513.00,15.01570
514.00,15.03850
515.00,15.05282
516.00,15.07786
517.00,15.08464
518.00,15.10087
519.00,15.11979
520.00,15.12744
521.00,15.14384
522.00,15.15347
523.00,15.16838
524.00,15.16643
525.00,15.18974
526.00,15.18808
527.00,15.20196
528.00,15.19673
529.00,15.20989
530.00,15.20054
531.00,15.19954
532.00,15.18865
533.00,15.18318
534.00,15.18784
535.00,15.17880
536.00,15.16076
537.00,15.13130
538.00,15.11469
539.00,15.10502
540.00,15.08254
541.00,15.05611
542.00,15.04120
543.00,15.01886
544.00,14.98539
545.00,14.96084
546.00,14.93440
547.00,14.90276
548.00,14.88506
549.00,14.84938
550.00,14.81740
551.00,14.78390
552.00,14.74551
553.00,14.70365
554.00,14.68335
555.00,14.63714
556.00,14.60819
557.00,14.56217
558.00,14.53558
559.00,14.49015
560.00,14.45166
561.00,14.42727
562.00,14.39292
563.00,14.33699
564.00,14.30069
565.00,14.27178
566.00,14.23805
567.00,14.20953
568.00,14.17677
569.00,14.13951
570.00,14.10945
571.00,14.07189
572.00,14.03505
573.00,14.01263
574.00,13.96966
575.00,13.94549
576.00,13.91226
577.00,13.89656
578.00,13.85878
579.00,13.83038
580.00,13.81002
581.00,13.80032
582.00,13.77159
583.00,13.74836
584.00,13.72423
585.00,13.70314
586.00,13.69195
587.00,13.67267
588.00,13.65866
589.00,13.64131
590.00,13.63487
591.00,13.61039
592.00,13.61669
593.00,13.59676
594.00,13.59957
595.00,13.58272
596.00,13.57297
597.00,13.57255
598.00,13.56913
599.00,13.56744
600.00,13.56603
601.00,13.56181
602.00,13.56760
603.00,13.56411
604.00,13.56309
605.00,13.56663
606.00,13.57704
607.00,13.56756
608.00,13.58332
609.00,13.57817
610.00,13.57855
611.00,13.58946
612.00,13.60056
613.00,13.60690
614.00,13.61310
615.00,13.62009
616.00,13.62252
617.00,13.63742
618.00,13.65233
619.00,13.64457
620.00,13.66409
621.00,13.67395
622.00,13.68386
623.00,13.68912
624.00,13.69759
625.00,13.70004
626.00,13.71734
627.00,13.73014
628.00,13.73784
629.00,13.73988
630.00,13.75087
631.00,13.76295
632.00,13.78140
633.00,13.78310
634.00,13.79856
635.00,13.79934
636.00,13.80748
637.00,13.82098
638.00,13.82329
639.00,13.82456
640.00,13.84108
641.00,13.83330
642.00,13.83972
643.00,13.83470
644.00,13.83260
645.00,13.84697
646.00,13.84831
647.00,13.85944
648.00,13.85363
649.00,13.84404
650.00,13.85613
651.00,13.84172
652.00,13.83814
653.00,13.84235
654.00,13.82855
655.00,13.81982
656.00,13.83771
657.00,13.80802
658.00,13.81228
659.00,13.80201
660.00,13.79979
661.00,13.78736
662.00,13.77228
663.00,13.76480
664.00,13.74661
665.00,13.73462
666.00,13.73527
667.00,13.70590
668.00,13.68885
669.00,13.68614
670.00,13.67406
671.00,13.66253
672.00,13.62951
673.00,13.62421
674.00,13.60760
675.00,13.59040
676.00,13.55770
677.00,13.53789
678.00,13.51738
679.00,13.50571
680.00,13.48549
681.00,13.46896
682.00,13.44152
683.00,13.40785
684.00,13.40285
685.00,13.36981
686.00,13.34763
687.00,13.32993
688.00,13.29651
689.00,13.26566
690.00,13.26127
691.00,13.23780
692.00,13.19372
693.00,13.17810
694.00,13.15308
695.00,13.12740
696.00,13.10336
697.00,13.08041
698.00,13.08095
699.00,13.01711
700.00,13.00960
701.00,12.98533
702.00,12.96563
703.00,12.93949
704.00,12.93051
705.00,12.87960
706.00,12.86034
707.00,12.82584
708.00,12.82437
709.00,12.79083
710.00,12.75958
711.00,12.74699
712.00,12.72591
713.00,12.69948
714.00,12.67900
715.00,12.66463
716.00,12.64382
717.00,12.62303
718.00,12.60308
719.00,12.57443
720.00,12.56409
721.00,12.57250
722.00,12.52315
723.00,12.51720
724.00,12.46689
725.00,12.46181
726.00,12.45096
727.00,12.44435
728.00,12.39864
729.00,12.38757
730.00,12.38131
731.00,12.37623
732.00,12.34802
733.00,12.34648
734.00,12.32619
735.00,12.33322
736.00,12.31763
737.00,12.28158
738.00,12.27661
739.00,12.24913
740.00,12.25114
741.00,12.24770
742.00,12.22823
743.00,12.20426
744.00,12.23587
745.00,12.18788
746.00,12.17808
747.00,12.18290
748.00,12.17309
749.00,12.17503
750.00,12.14081
751.00,12.13621
752.00,12.14987
753.00,12.13659
754.00,12.12932
755.00,12.15987
756.00,12.12005
757.00,12.10875
758.00,12.11831
759.00,12.09366
760.00,12.12521
761.00,12.12618
762.00,12.09519
763.00,12.08792
764.00,12.11466
765.00,12.14900
766.00,12.07461
767.00,12.09012
768.00,12.08448
769.00,12.08665
770.00,12.10131
771.00,12.09026
772.00,12.10245
773.00,12.09545
774.00,12.10142
775.00,12.08409
776.00,12.08857
777.00,12.10521
778.00,12.05200
779.00,12.10487
780.00,12.14083
781.00,12.14817
782.00,12.08430
783.00,12.11486
784.00,12.11061
785.00,12.10568
786.00,12.14610
787.00,12.12417
788.00,12.07840
789.00,12.11310
790.00,12.11355
791.00,12.10091
792.00,12.12747
793.00,12.12095
794.00,12.15386
795.00,12.15371
796.00,12.16935
797.00,12.19982
798.00,12.14639
799.00,12.17524
800.00,12.14573
801.00,12.19418
802.00,12.20781
803.00,12.17358
804.00,12.20767
805.00,12.19163
806.00,12.15197
807.00,12.23676
808.00,12.20879
809.00,12.17799
810.00,12.25023
811.00,12.25948
812.00,12.23027
813.00,12.26131
814.00,12.25638
815.00,12.29079
816.00,12.26662
817.00,12.24685
818.00,12.28569
819.00,12.28128
820.00,12.28693
821.00,12.27840
822.00,12.29498
823.00,12.27599
824.00,12.24757
825.00,12.29900
826.00,12.31917
827.00,12.28063
828.00,12.30232
829.00,12.32161
830.00,12.25963
831.00,12.30496
832.00,12.28802
833.00,12.25633
834.00,12.34057
835.00,12.30214
836.00,12.35126
837.00,12.36347
838.00,12.30485
839.00,12.34739
840.00,12.34013
841.00,12.33572
842.00,12.35564
843.00,12.29697
844.00,12.29587
845.00,12.42260
846.00,12.27534
847.00,12.31781
848.00,12.24746
849.00,12.37450
850.00,12.32954
851.00,12.45670
852.00,12.24520
853.00,12.18707
854.00,12.34404
855.00,12.22930
856.00,12.41837
857.00,12.36587
858.00,12.24438
859.00,12.31543
860.00,12.29513
861.00,12.26770
862.00,12.35762
863.00,12.41086
864.00,12.26312
865.00,12.14304
866.00,12.56102
867.00,12.49318
868.00,12.46309
869.00,12.10476
870.00,12.12424
871.00,11.82515
872.00,12.37761
873.00,12.16433
874.00,12.37714
875.00,12.25794
876.00,12.20634
877.00,12.03985
878.00,12.51831
879.00,12.23650
880.00,12.42856
881.00,12.04422
882.00,11.60596
883.00,12.21845
884.00,12.37746
885.00,11.66123
886.00,12.10802
887.00,11.69341
888.00,12.65044
889.00,12.10766
890.00,10.99553
891.00,12.68292
892.00,12.34891
893.00,12.23421
894.00,10.84927
895.00,12.20409
896.00,13.10429
897.00,11.84628
898.00,11.70387
899.00,11.50084
900.00,12.57282
