"PostItNoteClearSR - RawData"
"Wavelength nm.","R%"
190.00,572.43261
191.00,547.03650
192.00,483.40030
193.00,483.23417
194.00,439.68749
195.00,424.17011
196.00,393.17656
197.00,407.10812
198.00,365.00256
199.00,353.47686
200.00,354.44295
201.00,328.60122
202.00,319.99326
203.00,319.38369
204.00,300.34492
205.00,287.94181
206.00,279.49817
207.00,271.60554
208.00,262.17628
209.00,248.55654
210.00,236.68942
211.00,236.65345
212.00,225.36058
213.00,220.51532
214.00,218.07706
215.00,212.83164
216.00,209.00202
217.00,206.28531
218.00,201.70021
219.00,195.40207
220.00,192.89860
221.00,186.80334
222.00,184.58803
223.00,182.73014
224.00,183.22607
225.00,183.06229
226.00,180.84561
227.00,181.23654
228.00,180.18901
229.00,180.36751
230.00,177.56057
231.00,176.98474
232.00,174.24095
233.00,172.64322
234.00,170.32394
235.00,168.33972
236.00,164.30355
237.00,161.35733
238.00,157.52810
239.00,153.25106
240.00,149.82772
241.00,144.24279
242.00,140.72161
243.00,136.00795
244.00,132.38955
245.00,127.60010
246.00,124.84870
247.00,121.52917
248.00,118.56445
249.00,114.95539
250.00,112.68431
251.00,110.11796
252.00,108.10992
253.00,105.83837
254.00,103.98188
255.00,103.16335
256.00,101.56106
257.00,101.18992
258.00,100.18247
259.00,99.35814
260.00,98.61701
261.00,98.66759
262.00,98.37744
263.00,98.45988
264.00,99.21176
265.00,99.15190
266.00,99.98793
267.00,100.49555
268.00,101.25949
269.00,101.56063
270.00,102.36284
271.00,103.60309
272.00,103.90831
273.00,104.34872
274.00,104.88079
275.00,104.82626
276.00,104.83624
277.00,103.99302
278.00,103.95331
279.00,103.31726
280.00,102.61788
281.00,101.66802
282.00,101.40684
283.00,100.27595
284.00,98.30759
285.00,96.96395
286.00,95.14763
287.00,93.03133
288.00,91.06295
289.00,89.00086
290.00,87.37753
291.00,85.50805
292.00,84.10999
293.00,82.74031
294.00,81.37928
295.00,80.00494
296.00,79.16469
297.00,78.01854
298.00,77.13148
299.00,76.30134
300.00,75.13855
301.00,74.60229
302.00,73.73044
303.00,73.30324
304.00,72.62501
305.00,72.17450
306.00,72.04134
307.00,71.61682
308.00,71.49053
309.00,71.07502
310.00,70.88508
311.00,71.38355
312.00,71.69600
313.00,71.58723
314.00,71.72144
315.00,72.25283
316.00,72.48636
317.00,72.96916
318.00,73.13192
319.00,73.05286
320.00,74.06505
321.00,74.07248
322.00,74.37132
323.00,74.65747
324.00,75.50460
325.00,75.66167
326.00,76.13900
327.00,76.25800
328.00,76.54842
329.00,76.83464
330.00,77.02881
331.00,77.63185
332.00,77.64603
333.00,77.80833
334.00,78.10941
335.00,78.25955
336.00,78.31317
337.00,78.70365
338.00,79.08503
339.00,79.22022
340.00,79.30754
341.00,79.49705
342.00,79.62121
343.00,79.73484
344.00,79.67548
345.00,79.73210
346.00,79.64518
347.00,79.73357
348.00,79.87414
349.00,79.42044
350.00,79.72649
351.00,79.28510
352.00,79.11047
353.00,78.95756
354.00,78.74924
355.00,78.28002
356.00,78.17658
357.00,78.33276
358.00,77.95923
359.00,78.13771
360.00,77.67763
361.00,77.55771
362.00,77.60044
363.00,77.29441
364.00,77.05728
365.00,77.10592
366.00,76.43910
367.00,76.83700
368.00,76.57531
369.00,76.43692
370.00,76.26026
371.00,76.02680
372.00,75.81884
373.00,75.90519
374.00,75.70213
375.00,75.43681
376.00,75.54754
377.00,75.28322
378.00,75.28054
379.00,75.15681
380.00,75.28622
381.00,75.30167
382.00,75.04944
383.00,75.06115
384.00,75.06343
385.00,74.95714
386.00,74.91377
387.00,74.95989
388.00,74.81788
389.00,74.94384
390.00,74.72340
391.00,74.75102
392.00,74.62991
393.00,74.73978
394.00,74.81458
395.00,74.90243
396.00,74.85542
397.00,74.64706
398.00,74.88083
399.00,74.90425
400.00,74.99615
401.00,75.06431
402.00,75.04991
403.00,75.13262
404.00,75.31515
405.00,75.44724
406.00,75.53617
407.00,75.73931
408.00,75.91032
409.00,76.08187
410.00,76.28553
411.00,76.58428
412.00,76.78980
413.00,77.20081
414.00,77.51064
415.00,77.86722
416.00,78.21419
417.00,78.36818
418.00,78.66673
419.00,78.97628
420.00,79.10364
421.00,79.35503
422.00,79.46207
423.00,79.72628
424.00,79.74674
425.00,80.02902
426.00,80.09225
427.00,80.26893
428.00,80.33382
429.00,80.40253
430.00,80.62623
431.00,80.79967
432.00,80.71738
433.00,80.92673
434.00,80.88136
435.00,80.95611
436.00,81.10231
437.00,81.14294
438.00,81.27653
439.00,81.28078
440.00,81.51346
441.00,81.58919
442.00,81.70933
443.00,81.73156
444.00,81.84198
445.00,81.81764
446.00,81.78517
447.00,81.99003
448.00,81.99922
449.00,82.15790
450.00,82.32666
451.00,82.23851
452.00,82.32329
453.00,82.39542
454.00,82.35919
455.00,82.46853
456.00,82.61579
457.00,82.67750
458.00,82.73988
459.00,82.70834
460.00,82.86136
461.00,82.81871
462.00,82.91463
463.00,82.90331
464.00,83.05511
465.00,82.98493
466.00,83.02819
467.00,83.20153
468.00,83.27125
469.00,83.14844
470.00,83.35778
471.00,83.33070
472.00,83.50098
473.00,83.50587
474.00,83.49674
475.00,83.48248
476.00,83.68037
477.00,83.70842
478.00,83.69061
479.00,83.73354
480.00,83.82553
481.00,83.85878
482.00,83.96991
483.00,83.95787
484.00,83.89021
485.00,83.94001
486.00,83.91493
487.00,84.00986
488.00,84.09160
489.00,84.06438
490.00,84.02870
491.00,84.13473
492.00,84.04263
493.00,84.15481
494.00,84.11853
495.00,84.08353
496.00,84.20290
497.00,84.23244
498.00,84.14459
499.00,84.26163
500.00,84.24233
501.00,84.21494
502.00,84.17497
503.00,84.18351
504.00,84.23746
505.00,84.24605
506.00,84.20054
507.00,84.24081
508.00,84.21776
509.00,84.14077
510.00,84.20016
511.00,84.07393
512.00,84.18070
513.00,84.21462
514.00,84.04616
515.00,84.05609
516.00,84.07140
517.00,83.98221
518.00,84.00394
519.00,83.96143
520.00,83.93580
521.00,83.90778
522.00,83.84904
523.00,83.88400
524.00,83.73709
525.00,83.77464
526.00,83.75054
527.00,83.75943
528.00,83.75812
529.00,83.71972
530.00,83.77460
531.00,83.84216
532.00,83.74192
533.00,83.77351
534.00,83.85799
535.00,83.90383
536.00,84.00789
537.00,84.01561
538.00,84.09290
539.00,84.19374
540.00,84.16643
541.00,84.19945
542.00,84.28659
543.00,84.21119
544.00,84.22123
545.00,84.36822
546.00,84.37103
547.00,84.24588
548.00,84.30882
549.00,84.40298
550.00,84.51521
551.00,84.50927
552.00,84.51971
553.00,84.36640
554.00,84.36031
555.00,84.39159
556.00,84.38678
557.00,84.32428
558.00,84.31193
559.00,84.30288
560.00,84.38538
561.00,84.32404
562.00,84.26342
563.00,84.25595
564.00,84.31004
565.00,84.29260
566.00,84.35199
567.00,84.52955
568.00,84.60439
569.00,84.63859
570.00,84.72799
571.00,84.91318
572.00,84.92301
573.00,85.07011
574.00,85.19967
575.00,85.42137
576.00,85.53879
577.00,85.61140
578.00,85.80454
579.00,86.00377
580.00,86.13954
581.00,86.31830
582.00,86.47615
583.00,86.64460
584.00,86.84499
585.00,86.88764
586.00,87.08132
587.00,87.28493
588.00,87.40261
589.00,87.58328
590.00,87.80701
591.00,87.89201
592.00,88.05736
593.00,88.11235
594.00,88.33733
595.00,88.49179
596.00,88.44036
597.00,88.64694
598.00,88.72895
599.00,88.82604
600.00,88.91173
601.00,89.01566
602.00,89.20170
603.00,89.20701
604.00,89.39790
605.00,89.47774
606.00,89.57865
607.00,89.82656
608.00,89.80643
609.00,89.91370
610.00,89.91022
611.00,90.03272
612.00,90.17301
613.00,90.31745
614.00,90.43529
615.00,90.60091
616.00,90.58757
617.00,90.80629
618.00,90.93232
619.00,91.26496
620.00,91.26620
621.00,91.41923
622.00,91.67219
623.00,91.81697
624.00,92.01900
625.00,92.12149
626.00,92.37638
627.00,92.64014
628.00,92.85298
629.00,93.14029
630.00,93.47456
631.00,93.44977
632.00,93.74354
633.00,94.06066
634.00,94.19665
635.00,94.45546
636.00,94.78229
637.00,94.98551
638.00,95.21849
639.00,95.41681
640.00,95.68117
641.00,96.02844
642.00,96.22550
643.00,96.50917
644.00,96.61663
645.00,96.93205
646.00,97.08302
647.00,97.40507
648.00,97.64532
649.00,97.80858
650.00,97.96907
651.00,98.21185
652.00,98.53132
653.00,98.71816
654.00,98.85581
655.00,99.05778
656.00,99.28632
657.00,99.48317
658.00,99.66691
659.00,99.86637
660.00,100.22348
661.00,100.29591
662.00,100.48237
663.00,100.69531
664.00,100.65918
665.00,100.90364
666.00,101.11724
667.00,101.22130
668.00,101.16680
669.00,101.50963
670.00,101.71814
671.00,101.63285
672.00,101.95750
673.00,101.89887
674.00,102.18689
675.00,102.25220
676.00,102.23000
677.00,102.48966
678.00,102.64859
679.00,102.59275
680.00,102.90993
681.00,103.10278
682.00,103.06717
683.00,103.00276
684.00,103.26380
685.00,103.46185
686.00,103.78332
687.00,103.64554
688.00,103.84630
689.00,103.97667
690.00,104.21649
691.00,104.34693
692.00,104.63132
693.00,104.66043
694.00,104.92513
695.00,105.07166
696.00,105.16492
697.00,105.36877
698.00,105.52976
699.00,105.90793
700.00,105.94816
701.00,106.09045
702.00,106.48801
703.00,106.84335
704.00,106.73264
705.00,107.01466
706.00,107.40262
707.00,107.56285
708.00,107.97153
709.00,107.93103
710.00,108.26210
711.00,108.37650
712.00,108.58529
713.00,108.86241
714.00,108.88432
715.00,109.17212
716.00,109.47632
717.00,109.74178
718.00,110.14374
719.00,110.45456
720.00,110.26428
721.00,110.72005
722.00,111.00299
723.00,110.76214
724.00,111.24202
725.00,111.59165
726.00,111.76176
727.00,112.21324
728.00,112.38111
729.00,112.42578
730.00,112.66617
731.00,112.86986
732.00,113.00193
733.00,113.54276
734.00,113.59255
735.00,114.22709
736.00,114.42952
737.00,114.79378
738.00,114.84376
739.00,115.09291
740.00,115.44789
741.00,115.79305
742.00,116.21466
743.00,116.51357
744.00,116.25290
745.00,117.08957
746.00,116.88375
747.00,117.34045
748.00,117.31089
749.00,118.40103
750.00,118.25074
751.00,118.10586
752.00,118.86493
753.00,119.38856
754.00,119.26701
755.00,119.72003
756.00,119.96542
757.00,120.25208
758.00,120.10319
759.00,120.92334
760.00,120.78685
761.00,121.16718
762.00,121.01450
763.00,121.17089
764.00,122.10225
765.00,121.41129
766.00,121.91659
767.00,122.08751
768.00,123.17561
769.00,123.02105
770.00,122.92378
771.00,123.43806
772.00,123.34007
773.00,123.64697
774.00,123.83418
775.00,124.10345
776.00,124.67110
777.00,125.01521
778.00,124.69517
779.00,125.10499
780.00,125.19078
781.00,125.44478
782.00,125.86048
783.00,125.69038
784.00,125.84137
785.00,126.29521
786.00,126.58890
787.00,126.77888
788.00,127.11693
789.00,127.02034
790.00,127.51365
791.00,127.37707
792.00,127.22759
793.00,127.86591
794.00,128.45691
795.00,127.87852
796.00,127.98177
797.00,127.97105
798.00,128.57614
799.00,128.59933
800.00,128.51413
801.00,129.28071
802.00,128.95006
803.00,129.34523
804.00,129.11088
805.00,129.03003
806.00,130.12099
807.00,129.98372
808.00,129.92390
809.00,130.22304
810.00,130.57549
811.00,130.37037
812.00,129.76182
813.00,130.32001
814.00,130.76789
815.00,131.04064
816.00,130.19429
817.00,130.44052
818.00,131.57761
819.00,130.81418
820.00,131.46614
821.00,131.24777
822.00,131.57002
823.00,130.52096
824.00,131.88723
825.00,131.65793
826.00,131.28644
827.00,132.28545
828.00,132.23317
829.00,131.24816
830.00,131.29841
831.00,131.48826
832.00,131.15103
833.00,131.46577
834.00,131.71345
835.00,132.53450
836.00,131.71495
837.00,130.47285
838.00,131.53747
839.00,131.92244
840.00,131.93290
841.00,131.95070
842.00,131.05458
843.00,130.70453
844.00,129.89479
845.00,129.00586
846.00,128.30206
847.00,129.60125
848.00,129.83871
849.00,130.76372
850.00,130.46086
851.00,131.30128
852.00,128.81932
853.00,130.90920
854.00,124.64763
855.00,129.08365
856.00,124.08557
857.00,126.34951
858.00,130.53064
859.00,126.15167
860.00,128.41325
861.00,123.33037
862.00,126.99537
863.00,126.81861
864.00,127.75408
865.00,122.91151
866.00,124.15178
867.00,124.51242
868.00,123.84603
869.00,127.04790
870.00,120.17241
871.00,126.15575
872.00,120.32981
873.00,132.11557
874.00,124.15824
875.00,126.73602
876.00,123.23034
877.00,118.33694
878.00,122.31537
879.00,133.65635
880.00,114.75798
881.00,119.08716
882.00,119.59569
883.00,117.52120
884.00,126.44238
885.00,111.84431
886.00,122.17209
887.00,120.05618
888.00,112.36697
889.00,129.11645
890.00,124.32978
891.00,106.26004
892.00,122.45086
893.00,106.17875
894.00,117.51859
895.00,125.16564
896.00,120.05110
897.00,137.80452
898.00,120.25359
899.00,120.69517
900.00,118.36562
