"Sapphire Paint 2 - RawData"
"Wavelength nm.","T%"
200.00,46.77362
201.00,47.43269
202.00,48.91256
203.00,49.17739
204.00,48.92937
205.00,49.63915
206.00,49.74674
207.00,49.91877
208.00,51.10157
209.00,51.49505
210.00,51.55986
211.00,53.38688
212.00,53.01260
213.00,53.37747
214.00,53.60625
215.00,53.48173
216.00,53.43459
217.00,53.30899
218.00,52.32238
219.00,53.84817
220.00,52.46091
221.00,53.10513
222.00,53.75360
223.00,53.08139
224.00,53.88625
225.00,53.72675
226.00,54.36255
227.00,54.10810
228.00,54.93342
229.00,54.89168
230.00,54.96885
231.00,55.28463
232.00,55.34858
233.00,55.42269
234.00,55.64734
235.00,56.01046
236.00,56.08380
237.00,57.05775
238.00,57.14485
239.00,57.27338
240.00,57.55348
241.00,57.97867
242.00,58.06245
243.00,58.59292
244.00,58.20618
245.00,58.70985
246.00,58.99475
247.00,59.38408
248.00,59.52441
249.00,59.63569
250.00,59.94395
251.00,60.16336
252.00,60.33480
253.00,60.34914
254.00,60.68877
255.00,60.63495
256.00,60.77678
257.00,60.85360
258.00,61.08304
259.00,60.98033
260.00,61.01845
261.00,61.29773
262.00,61.21310
263.00,61.17884
264.00,61.46910
265.00,61.26137
266.00,61.24967
267.00,61.57549
268.00,61.61146
269.00,61.43724
270.00,61.70449
271.00,61.82669
272.00,61.39318
273.00,61.93264
274.00,61.73610
275.00,62.06288
276.00,61.96398
277.00,61.58953
278.00,61.91760
279.00,61.83831
280.00,62.02484
281.00,61.96173
282.00,62.06095
283.00,62.16820
284.00,62.37629
285.00,62.04937
286.00,62.18888
287.00,62.87113
288.00,62.55491
289.00,62.77488
290.00,63.25103
291.00,63.35529
292.00,63.35846
293.00,63.40774
294.00,63.38786
295.00,63.49680
296.00,63.37764
297.00,63.56351
298.00,63.82552
299.00,63.79687
300.00,63.58364
301.00,63.89682
302.00,64.22541
303.00,63.84922
304.00,64.30902
305.00,63.85893
306.00,64.33191
307.00,63.98095
308.00,64.21518
309.00,64.04962
310.00,64.35931
311.00,64.33895
312.00,64.34729
313.00,64.67015
314.00,64.94678
315.00,64.72452
316.00,64.87171
317.00,64.72706
318.00,64.76233
319.00,64.76833
320.00,64.73538
321.00,64.62629
322.00,65.08652
323.00,64.62010
324.00,65.12554
325.00,64.41990
326.00,64.86430
327.00,65.12580
328.00,65.17265
329.00,65.17310
330.00,64.94564
331.00,65.25960
332.00,65.64336
333.00,65.46360
334.00,65.31525
335.00,65.13998
336.00,65.88345
337.00,65.51173
338.00,65.16295
339.00,65.37173
340.00,65.85123
341.00,65.53097
342.00,65.68257
343.00,66.03714
344.00,65.65853
345.00,65.31783
346.00,65.64022
347.00,65.54661
348.00,66.00969
349.00,65.75915
350.00,65.62914
351.00,65.76817
352.00,65.89485
353.00,65.89969
354.00,65.71524
355.00,65.87282
356.00,66.03500
357.00,65.86720
358.00,66.00078
359.00,65.95795
360.00,66.16393
361.00,65.88433
362.00,65.78081
363.00,65.86273
364.00,65.80948
365.00,66.23085
366.00,65.92234
367.00,66.07311
368.00,66.31600
369.00,66.07598
370.00,65.99016
371.00,65.92771
372.00,66.39977
373.00,66.33880
374.00,66.18073
375.00,66.22069
376.00,66.20281
377.00,66.32029
378.00,66.20149
379.00,66.27784
380.00,66.08086
381.00,66.16776
382.00,66.23394
383.00,66.44690
384.00,66.32706
385.00,66.29718
386.00,66.25401
387.00,66.31307
388.00,66.50786
389.00,66.16581
390.00,66.49250
391.00,66.55846
392.00,66.40389
393.00,66.52511
394.00,66.42523
395.00,66.50857
396.00,66.45255
397.00,66.50169
398.00,66.65891
399.00,66.50835
400.00,66.38463
401.00,66.50351
402.00,66.63790
403.00,66.59562
404.00,66.57307
405.00,66.56232
406.00,66.66543
407.00,66.61819
408.00,66.51016
409.00,66.58815
410.00,66.69037
411.00,66.74075
412.00,66.90860
413.00,66.81350
414.00,66.76894
415.00,66.82277
416.00,66.70556
417.00,66.74813
418.00,66.69434
419.00,66.89571
420.00,66.85047
421.00,66.79252
422.00,66.80601
423.00,66.92848
424.00,66.74657
425.00,66.90071
426.00,66.92914
427.00,66.88768
428.00,66.92111
429.00,67.00434
430.00,66.97355
431.00,66.93669
432.00,67.01961
433.00,66.91490
434.00,67.02436
435.00,67.01107
436.00,67.16974
437.00,67.17053
438.00,67.10331
439.00,67.08373
440.00,66.98979
441.00,67.05984
442.00,67.03590
443.00,67.10802
444.00,67.17913
445.00,67.06260
446.00,67.15846
447.00,67.20691
448.00,67.12279
449.00,67.31642
450.00,67.17141
451.00,67.25600
452.00,67.26786
453.00,67.21674
454.00,67.34140
455.00,67.32233
456.00,67.36414
457.00,67.24830
458.00,67.24260
459.00,67.35748
460.00,67.41062
461.00,67.33117
462.00,67.38629
463.00,67.41898
464.00,67.44225
465.00,67.38235
466.00,67.43873
467.00,67.49269
468.00,67.41341
469.00,67.49971
470.00,67.43401
471.00,67.45846
472.00,67.36633
473.00,67.34083
474.00,67.58130
475.00,67.43932
476.00,67.35287
477.00,67.56066
478.00,67.50473
479.00,67.41892
480.00,67.52034
481.00,67.59223
482.00,67.53082
483.00,67.58177
484.00,67.54251
485.00,67.75823
486.00,67.70094
487.00,67.65163
488.00,67.59785
489.00,67.69189
490.00,67.63576
491.00,67.61464
492.00,67.74169
493.00,67.64352
494.00,67.58631
495.00,67.67119
496.00,67.68700
497.00,67.70774
498.00,67.68376
499.00,67.73446
500.00,67.61701
501.00,67.75401
502.00,67.75524
503.00,67.78491
504.00,67.79131
505.00,67.80621
506.00,67.79386
507.00,67.83206
508.00,67.89284
509.00,67.77411
510.00,67.71662
511.00,67.83979
512.00,67.93262
513.00,67.85725
514.00,67.81254
515.00,67.91246
516.00,67.98654
517.00,67.83894
518.00,67.93579
519.00,67.93170
520.00,67.93310
521.00,67.90295
522.00,67.99294
523.00,67.82870
524.00,67.96418
525.00,67.96957
526.00,68.00566
527.00,67.98046
528.00,67.97794
529.00,68.07342
530.00,67.91831
531.00,68.10867
532.00,68.05302
533.00,68.01668
534.00,68.07103
535.00,67.90758
536.00,67.92157
537.00,68.10911
538.00,68.08832
539.00,68.11368
540.00,68.14926
541.00,68.17107
542.00,68.10722
543.00,68.27950
544.00,68.20423
545.00,68.07861
546.00,68.17584
547.00,68.15911
548.00,68.13880
549.00,68.20816
550.00,68.09523
551.00,68.24394
552.00,68.30141
553.00,68.34255
554.00,68.29203
555.00,68.35740
556.00,68.31598
557.00,68.29006
558.00,68.29218
559.00,68.27344
560.00,68.32473
561.00,68.34934
562.00,68.33045
563.00,68.38833
564.00,68.33490
565.00,68.40904
566.00,68.41916
567.00,68.48482
568.00,68.48447
569.00,68.40982
570.00,68.46133
571.00,68.37998
572.00,68.51014
573.00,68.43851
574.00,68.50964
575.00,68.48585
576.00,68.45821
577.00,68.51069
578.00,68.53406
579.00,68.56847
580.00,68.54892
581.00,68.54827
582.00,68.56248
583.00,68.61653
584.00,68.62203
585.00,68.60409
586.00,68.57275
587.00,68.56793
588.00,68.65398
589.00,68.67241
590.00,68.66627
591.00,68.62589
592.00,68.67380
593.00,68.63256
594.00,68.71095
595.00,68.62614
596.00,68.67769
597.00,68.61032
598.00,68.74145
599.00,68.62909
600.00,68.72244
601.00,68.69171
602.00,68.79205
603.00,68.75063
604.00,68.80276
605.00,68.82606
606.00,68.80133
607.00,68.72327
608.00,68.77437
609.00,68.89199
610.00,68.77009
611.00,68.73864
612.00,68.87641
613.00,68.88224
614.00,68.79458
615.00,68.94633
616.00,68.83097
617.00,68.92021
618.00,68.97537
619.00,68.74974
620.00,68.90847
621.00,68.93460
622.00,69.01866
623.00,68.91632
624.00,69.07319
625.00,68.96644
626.00,69.03087
627.00,69.02544
628.00,68.98685
629.00,69.07980
630.00,69.05726
631.00,69.18261
632.00,69.04114
633.00,69.04374
634.00,69.12739
635.00,69.10821
636.00,69.08417
637.00,69.10713
638.00,68.98761
639.00,69.02832
640.00,69.08866
641.00,69.13300
642.00,69.05031
643.00,69.08966
644.00,69.24950
645.00,69.19297
646.00,69.20491
647.00,69.19807
648.00,69.22649
649.00,69.19273
650.00,69.17022
651.00,69.27075
652.00,69.26481
653.00,69.28329
654.00,69.26861
655.00,69.28247
656.00,69.22223
657.00,69.17689
658.00,69.29874
659.00,69.32775
660.00,69.30065
661.00,69.33048
662.00,69.42149
663.00,69.44859
664.00,69.43152
665.00,69.32396
666.00,69.29805
667.00,69.51714
668.00,69.50042
669.00,69.54179
670.00,69.54759
671.00,69.40730
672.00,69.48605
673.00,69.60212
674.00,69.43629
675.00,69.61913
676.00,69.64758
677.00,69.54210
678.00,69.60453
679.00,69.60387
680.00,69.55986
681.00,69.65733
682.00,69.73017
683.00,69.62181
684.00,69.56381
685.00,69.52629
686.00,69.56008
687.00,69.39914
688.00,69.71968
689.00,69.54224
690.00,69.60508
691.00,69.73537
692.00,69.74447
693.00,69.81540
694.00,69.56951
695.00,69.79421
696.00,69.78492
697.00,69.45910
698.00,69.70763
699.00,69.91464
700.00,69.78387
701.00,70.06502
702.00,69.83325
703.00,69.80458
704.00,69.74075
705.00,69.79066
706.00,69.95673
707.00,69.87278
708.00,69.86220
709.00,70.12808
710.00,69.90455
711.00,69.91506
712.00,69.98078
713.00,70.01574
714.00,69.76378
715.00,70.07903
716.00,70.10721
717.00,69.90041
718.00,70.17654
719.00,69.79403
720.00,69.95209
721.00,70.09194
722.00,70.11095
723.00,70.08430
724.00,69.82850
725.00,69.97651
726.00,70.31640
727.00,70.09484
728.00,69.99069
729.00,69.96697
730.00,70.04076
731.00,70.19550
732.00,70.26671
733.00,69.84594
734.00,70.10124
735.00,70.28933
736.00,70.07791
737.00,69.80909
738.00,70.31809
739.00,70.14515
740.00,70.12399
741.00,69.97997
742.00,70.08802
743.00,70.17233
744.00,70.33722
745.00,70.23548
746.00,69.79347
747.00,70.10589
748.00,70.40303
749.00,70.06068
750.00,70.41317
751.00,70.34522
752.00,70.32436
753.00,70.30097
754.00,70.03845
755.00,70.38131
756.00,70.34059
757.00,70.18211
758.00,70.27710
759.00,70.28787
760.00,70.44082
761.00,70.05522
762.00,70.64340
763.00,70.34158
764.00,70.26594
765.00,70.32057
766.00,70.17375
767.00,70.40504
768.00,70.30023
769.00,70.38850
770.00,70.40513
771.00,70.61970
772.00,70.10520
773.00,69.84816
774.00,70.66888
775.00,70.53110
776.00,70.25473
777.00,70.06076
778.00,70.39173
779.00,70.15060
780.00,70.30199
781.00,70.51517
782.00,70.38485
783.00,70.45302
784.00,70.50241
785.00,70.37247
786.00,70.03503
787.00,70.70223
788.00,70.92217
789.00,70.82495
790.00,70.83207
791.00,70.19867
792.00,70.54251
793.00,70.92838
794.00,70.92655
795.00,70.60274
796.00,70.34824
797.00,70.51141
798.00,70.28090
799.00,70.42557
800.00,70.67506
